wavelength spectrum_sum 3smoothed_sum spectrum_optimal 3smoothed_optimal
3506.69 1800.04 1453.12 1366.04 1126.74
3509.61 2559.33 2475.91 2014.2 1963.1
3512.52 3068.36 2975.89 2509.06 2397.03
3515.44 3299.99 3279.51 2667.83 2642.44
3518.36 3470.18 3325.33 2750.42 2653.39
3521.27 3205.81 3340.53 2541.93 2672.93
3524.19 3345.6 3332.03 2726.45 2691.78
3527.11 3444.68 3378.26 2806.95 2726.89
3530.02 3344.5 3402.74 2647.26 2745.67
3532.94 3419.04 3413.2 2782.78 2740.09
3535.86 3476.05 3499.95 2790.23 2818.45
3538.78 3604.76 3572.24 2882.34 2874.19
3541.69 3635.9 3745.12 2950.01 3035.81
3544.61 3994.71 3892.92 3275.08 3152.38
3547.53 4048.15 3987.18 3232.07 3245.24
3550.44 3918.67 4029.02 3228.57 3262.81
3553.36 4120.24 4020.24 3327.81 3276.06
3556.28 4021.81 4054.81 3271.8 3278.68
3559.19 4022.4 4055.46 3236.45 3264.8
3562.11 4122.17 4022.25 3286.16 3236.9
3565.03 3922.18 4044.83 3188.11 3274.56
3567.94 4090.14 3993.45 3349.42 3273.66
3570.86 3968.02 4067.96 3283.44 3355.38
3573.78 4145.73 4104.9 3433.27 3401.02
3576.69 4200.95 4162.43 3486.34 3456.06
3579.61 4140.6 4113.95 3448.57 3404.17
3582.53 4000.3 4062.91 3277.59 3380.87
3585.44 4047.82 4148.98 3416.46 3470.73
3588.36 4398.8 4263.53 3718.13 3589.57
3591.28 4343.96 4384.61 3634.12 3677.17
3594.19 4411.05 4424.18 3679.27 3702.38
3597.11 4517.52 4437.27 3793.73 3714.19
3600.03 4383.22 4448.75 3669.55 3728.71
3602.95 4445.52 4454.78 3722.85 3753.26
3605.86 4535.6 4553.12 3867.36 3866.41
3608.78 4678.24 4629.63 4009.03 3935.92
3611.7 4675.03 4731.99 3931.38 4028.34
3614.61 4842.71 4888.6 4144.6 4144.27
3617.53 5148.07 5030.94 4356.84 4291.55
3620.45 5102.05 5250.31 4373.2 4459.66
3623.36 5500.82 5308.06 4648.93 4501.57
3626.28 5321.3 5216.61 4482.57 4402.33
3629.19 4827.72 5164.91 4075.5 4380.73
3632.11 5345.71 5300.31 4584.13 4530.28
3635.03 5727.52 5601.85 4931.2 4803.62
3637.94 5732.34 5639.93 4895.52 4842.37
3640.86 5459.94 5731.95 4700.39 4930.85
3643.78 6003.58 5755.5 5196.63 4984.07
3646.69 5802.97 5924.11 5055.19 5129.16
3649.61 5965.77 5957.77 5135.66 5158.48
3652.53 6104.58 6033.33 5284.58 5203.26
3655.44 6029.63 6073.79 5189.54 5243.04
3658.36 6087.17 6147.7 5255 5324.85
3661.28 6326.29 6262.76 5530.01 5435.5
3664.19 6374.83 6427.48 5521.48 5613.93
3667.11 6581.33 6408.67 5790.31 5578.48
3670.03 6269.86 6318.97 5423.66 5493.39
3672.94 6105.71 6289.13 5266.22 5427.92
3675.86 6491.82 6249.57 5593.89 5423.44
3678.78 6151.16 6368.96 5410.23 5511.69
3681.69 6463.88 6372.72 5530.94 5550.91
3684.61 6503.13 6561.88 5711.56 5697.06
3687.52 6718.64 6721.22 5848.69 5866.64
3690.44 6941.91 6755.67 6039.67 5882.54
3693.36 6606.45 6810.38 5759.27 5943.65
3696.27 6882.77 6823.79 6032.01 5970.49
3699.19 6982.13 6951.86 6120.2 6063.12
3702.11 6990.68 7110.94 6037.15 6188.66
3705.02 7360 7205.12 6408.63 6253.03
3707.94 7264.69 7408.45 6313.31 6463.72
3710.85 7600.67 7620.9 6669.21 6655.79
3713.77 7997.34 7623.8 6984.85 6636.4
3716.69 7273.39 7706.19 6255.14 6712.73
3719.6 7847.85 7675.46 6898.21 6710.92
3722.52 7905.15 8150.93 6979.4 7204.15
3725.44 8699.8 8344.2 7734.84 7340.16
3728.35 8427.63 8205.5 7306.22 7217.51
3731.27 7489.07 8003.73 6611.47 7033.92
3734.18 8094.49 8315.97 7184.06 7373.2
3737.1 9364.36 9031.21 8324.08 7987.75
3740.02 9634.78 9411.57 8455.12 8298.18
3742.93 9235.58 9061.63 8115.35 7941.91
3745.85 8314.53 8706.33 7255.26 7709.12
3748.76 8568.86 8764.39 7756.74 7783.08
3751.68 9409.76 9324.56 8337.24 8295.42
3754.6 9995.05 10049.1 8792.29 8877.13
3757.51 10742.4 10454.8 9501.87 9168
3760.43 10627.1 10641 9209.84 9337.14
3763.34 10553.6 10218.4 9299.71 8959.87
3766.26 9474.39 9839.1 8370.06 8732.23
3769.18 9489.28 9821.97 8526.93 8773.14
3772.09 10502.3 10649 9422.42 9591.81
3775.01 11955.4 11846.1 10826.1 10627.6
3777.92 13080.8 12669.3 11634.4 11308
3780.84 12971.7 13296.3 11463.6 11764
3783.75 13836.3 13494.5 12194.2 11992.7
3786.67 13675.5 13579.7 12320.4 12094.2
3789.59 13227.2 13003.9 11768.1 11653.1
3792.5 12109.2 12091.1 10870.9 10837.2
3795.42 10936.8 11622.7 9872.58 10491.7
3798.33 11822 11964.9 10731.6 10806.9
3801.25 13135.7 13046.8 11816.6 11748.2
3804.16 14182.5 14142.1 12696.3 12659.4
3807.08 15108.2 15196.4 13465.5 13546.4
3810 16298.4 16048.1 14477.5 14252.9
3812.91 16737.5 16819.2 14815.7 14987.3
3815.83 17421.7 17252.9 15668.7 15433.6
3818.74 17599.6 17212.9 15816.2 15454.7
3821.66 16617.5 16650.7 14879.3 14948.1
3824.57 15734.9 15586.2 14149 13965.6
3827.49 14406.3 14384.1 12868.7 12871.8
3830.4 13011.1 13177.9 11597.8 11814
3833.32 12116.3 12540.2 10975.4 11350.8
3836.24 12493 12675.2 11479.1 11595.2
3839.15 13416.2 13877.7 12331 12695.5
3842.07 15723.7 15284.7 14276.5 13910.2
3844.98 16714.2 16637.2 15123.1 15013.3
3847.9 17473.7 17592.9 15640.4 15844.8
3850.81 18590.7 18616.1 16770.8 16722.4
3853.73 19783.8 19707.7 17755.9 17744.4
3856.64 20748.6 20660.9 18706.6 18640.8
3859.56 21450.3 21133.8 19459.9 19092.3
3862.47 21202.5 21546.2 19110.4 19443.2
3865.39 21985.7 21720.6 19759.4 19567.2
3868.3 21973.7 21682.2 19831.9 19495.5
3871.22 21087.1 21120.2 18895.2 19046.7
3874.13 20299.6 20328.1 18412.9 18341.6
3877.05 19597.6 19421.7 17716.7 17603.4
3879.96 18367.9 18125.8 16680.7 16408.4
3882.88 16411.9 16427.1 14827.8 14893.8
3885.79 14501.6 15123.1 13172.9 13808.3
3888.71 14455.8 14700 13424.1 13539.8
3891.62 15142.6 15483.5 14022.4 14343.3
3894.54 16852 16596.5 15583.5 15304.3
3897.45 17794.9 17886 16307 16400.1
3900.37 19011.2 18907.1 17309.8 17256.9
3903.28 19915.2 20139.7 18153.9 18328.8
3906.2 21492.7 21571 19522.6 19636.9
3909.11 23305.1 22791.9 21234.4 20730
3912.03 23577.9 23596.9 21433 21551.1
3914.94 23907.7 24067.5 21986 22043.8
3917.86 24717 24851.4 22712.3 22810.5
3920.77 25929.5 25661.5 23733.1 23493.8
3923.69 26337.9 25918.6 24035.8 23630.2
3926.6 25488.5 24938.5 23121.7 22700.8
3929.52 22989.2 23734.4 20945 21701.5
3932.43 22725.5 23393.7 21037.8 21516.2
3935.35 24466.4 24144 22565.7 22209.6
3938.26 25240.1 25125.5 23025.4 23063.7
3941.18 25669.8 25349.2 23600.1 23257.5
3944.09 25137.6 25274 23146.9 23259.1
3947 25014.6 25063.1 23030.2 23043.2
3949.92 25037.2 24962.5 22952.4 22922.1
3952.83 24835.5 24900.6 22783.8 22903.7
3955.75 24829 24503.3 22974.7 22533.8
3958.66 23845.4 23506.2 21842.8 21624.7
3961.58 21844.1 21582.7 20056.7 19755.2
3964.49 19058.6 19049.3 17366.1 17495.1
3967.41 16245.2 17386.3 15062.6 16079.8
3970.32 16855 17312.3 15810.7 16184.3
3973.23 18836.7 18666.4 17679.8 17468.5
3976.15 20307.5 20352 18915 18978.1
3979.06 21911.7 21841.1 20339.5 20286.3
3981.98 23304 23510 21604.4 21814.3
3984.89 25314.4 25082 23499 23239.5
3987.8 26627.5 26519.7 24615 24572.3
3990.72 27617.1 27419.9 25602.9 25387.3
3993.63 28015.1 28347.7 25944.1 26235.5
3996.55 29411 29180.6 27159.6 27003
3999.46 30115.7 30179 27905.2 27962.3
4002.37 31010.4 30894.5 28822.1 28727.9
4005.29 31557.4 31761.5 29456.3 29578.5
4008.2 32716.8 32514.4 30457 30262.1
4011.12 33269.1 33423.6 30872.9 31095.2
4014.03 34284.8 34148.3 31955.6 31755
4016.94 34890.8 34464.5 32436.5 32027.4
4019.86 34217.8 34647.9 31690.2 32168.3
4022.77 34835.1 34986.8 32378.4 32490.2
4025.69 35907.3 35060.4 33402.1 32614.2
4028.6 34438.7 34902.3 32062.1 32539.6
4031.51 34360.9 34826.6 32154.5 32545.4
4034.43 35680.2 35384.8 33419.6 33116.2
4037.34 36113.3 35695.5 33774.5 33361.7
4040.25 35292.9 35469.7 32891 33133.3
4043.17 35002.8 35301.1 32734.5 33016.9
4046.08 35607.6 35429.7 33425.3 33205.5
4048.99 35678.5 35546.6 33456.7 33314.8
4051.91 35353.7 35661.7 33062.4 33406.8
4054.82 35952.9 35794.4 33701.3 33531.7
4057.74 36076.6 35771.7 33831.4 33546.3
4060.65 35285.5 35676.3 33106.2 33478.4
4063.56 35666.9 35404.5 33497.7 33259.5
4066.48 35261.2 35242.5 33174.7 33074.5
4069.39 34799.4 34509.3 32551 32345.5
4072.3 33467.3 33252.3 31310.8 31124.8
4075.22 31490.3 32135.2 29512.7 30185
4078.13 31447.9 31574.7 29731.4 29700.4
4081.04 31785.9 31678.3 29857.1 29876.4
4083.95 31801.3 31897.8 30040.7 30057.5
4086.87 32106.2 31922.1 30274.7 30118.6
4089.78 31858.7 31392 30040.4 29503
4092.69 30211 29690.8 28194 27822.8
4095.61 27002.8 27035.3 25234 25248
4098.52 23892 24674.9 22316.2 23171.9
4101.43 23130 23708.7 21965.5 22438
4104.35 24104.2 24407.2 23032.3 23281.8
4107.26 25987.4 26005.6 24847.7 24870.3
4110.17 27925.2 27921.1 26731 26690.1
4113.08 29850.8 29422.5 28491.6 28005
4116 30491.6 30764.4 28792.5 29181.9
4118.91 31950.8 31670.4 30261.5 29998.4
4121.82 32568.9 32719.9 30941 30996.7
4124.73 33639.9 33291.8 31787.5 31556.6
4127.65 33666.7 33921 31941.3 32185.7
4130.56 34456.3 34716.8 32828.3 33037.6
4133.47 36027.3 36176.2 34343.3 34489.4
4136.39 38045 37629 36296.6 35828.3
4139.3 38814.8 38338.1 36845 36447.2
4142.21 38154.5 38752.8 36200.1 36870.4
4145.12 39289.2 39188.3 37566.3 37303.3
4148.04 40121.1 39612.7 38143.6 37706
4150.95 39427.8 39817.4 37408.2 37853.1
4153.86 39903.2 40143 38007.5 38269.7
4156.77 41098 40728.7 39393.4 38918.4
4159.68 41185 41408.8 39354.2 39619.4
4162.6 41943.4 41822.8 40110.5 39984
4165.51 42339.9 42118.3 40487.4 40247.5
4168.42 42071.7 41850.5 40144.5 39975.1
4171.33 41139.9 41431.3 39293.4 39531.6
4174.25 41082.3 41055.9 39156.9 39208.7
4177.16 40945.6 41290.8 39175.8 39479.4
4180.07 41844.4 41463.8 40105.4 39673.3
4182.98 41601.2 41809.6 39738.8 40071.9
4185.89 41983.2 42056.9 40371.5 40366.2
4188.8 42586.3 42344.3 40988.4 40683.1
4191.72 42463.5 42394.2 40689.4 40673.5
4194.63 42132.8 42140.2 40342.8 40334.3
4197.54 41824.4 41853.5 39970.7 40052.7
4200.45 41603.4 42028.8 39844.5 40246.8
4203.36 42658.7 42729.1 40925.4 41100.5
4206.28 43925 43858.1 42531.6 42252
4209.19 44990.6 44502.5 43298.9 42890.3
4212.1 44592 44711.4 42840.6 42967.1
4215.01 44551.5 44818.7 42762 43097.3
4217.92 45312.5 45078.2 43689.4 43295.4
4220.83 45370.7 44815.5 43434.9 43060.7
4223.74 43763.3 44586.1 42057.8 42856.8
4226.66 44624.3 44728.6 43077.6 43101.9
4229.57 45798.1 45168.2 44170.3 43529.9
4232.48 45082.2 45145.6 43341.7 43488.7
4235.39 44556.4 44864.2 42954.1 43268.1
4238.3 44953.9 45125.6 43508.5 43575.6
4241.21 45866.5 45618.3 44264 44045
4244.12 46034.4 45937.5 44362.3 44344.5
4247.03 45911.6 46180.1 44407.1 44654.4
4249.95 46594.2 46477.4 45194 44984.9
4252.86 46926.4 47033.8 45353.5 45503.4
4255.77 47580.6 47223.4 45962.5 45655.7
4258.68 47163.1 47774.7 45651.1 46261.8
4261.59 48580.3 48481.9 47171.7 47061.9
4264.5 49702.5 48947.5 48362.8 47503.2
4267.41 48559.9 48560.9 46975.1 47103.8
4270.32 47420.4 48017.1 45973.5 46586.5
4273.23 48071 48296.6 46810.7 46959.3
4276.14 49398.3 48942.4 48093.5 47624.8
4279.05 49357.9 49383.2 47970.2 47985.3
4281.96 49393.4 49271.5 47892.3 47866.2
4284.88 49063.1 49120.9 47736.2 47691
4287.79 48906.2 48896.1 47444.4 47481.5
4290.7 48719 48751.7 47263.8 47340.9
4293.61 48629.7 48196.3 47314.4 46774.9
4296.52 47240.2 47160.9 45746.4 45817.9
4299.43 45612.7 46140.5 44392.8 44847.9
4302.34 45568.6 45578.2 44404.6 44373.8
4305.25 45553.4 45745.3 44324.1 44570.4
4308.16 46113.9 46085.7 44982.5 44922.5
4311.07 46589.6 46540.1 45460.9 45405.8
4313.98 46916.8 47099.7 45774 45950.3
4316.89 47792.8 47409.5 46615.9 46272.6
4319.8 47518.9 47248.8 46427.9 46115.5
4322.71 46434.7 46404.4 45302.6 45284.9
4325.62 45259.5 44973.9 44124.2 43834.4
4328.53 43227.6 43260.6 42076.5 42102.7
4331.44 41294.6 40687.6 40107.3 39483.3
4334.35 37540.5 37232.3 36266.1 36026.2
4337.26 32861.7 33710.2 31705.2 32629.2
4340.17 30728.4 32003.4 29916.1 31215.7
4343.08 32420.3 32721.4 32025.9 32186.8
4345.99 35015.5 34699.9 34618.3 34301.4
4348.9 36663.9 36833.7 36260.1 36438.2
4351.81 38821.6 39081.4 38436 38673.4
4354.72 41758.7 41311.1 41324 40888
4357.63 43353.1 43508.9 42903.9 43032
4360.54 45414.9 45340.2 44868.1 44784.9
4363.45 47252.7 47203.9 46582.7 46542.6
4366.35 48944 48711 48176.9 47981.6
4369.26 49936.4 49829.6 49185.2 49053
4372.17 50608.4 50650.2 49796.9 49880.2
4375.08 51405.7 51649.7 50658.6 50883.8
4377.99 52935 52159.9 52196 51364.5
4380.9 52138.9 52037.8 51238.8 51222
4383.81 51039.6 51789.1 50231.2 50974
4386.72 52188.7 51744.6 51452 50948.5
4389.63 52005.3 52354.6 51162.3 51567.7
4392.54 52869.8 52587.2 52088.8 51859.5
4395.45 52886.5 52867.1 52327.5 52170.8
4398.35 52844.9 53216.2 52096 52556.9
4401.26 53917.1 53606.5 53247.1 52903.5
4404.17 54057.5 54029 53367.3 53342.1
4407.08 54112.4 54215.6 53411.8 53575.3
4409.99 54476.9 54229 53946.7 53624.6
4412.9 54097.7 54277.2 53515.2 53727.4
4415.81 54257 54195.9 53720.2 53653.3
4418.72 54233 54664.3 53724.4 54125.7
4421.62 55502.9 55059.1 54932.5 54512.3
4424.53 55441.5 55160.3 54879.9 54571.5
4427.44 54536.5 54871.5 53902.2 54316.9
4430.35 54636.4 54682.5 54168.5 54197.5
4433.26 54874.5 55209.4 54521.9 54849.3
4436.17 56117.3 55890.9 55857.5 55492.6
4439.07 56681.1 55970.1 56098.5 55490
4441.98 55112.1 55539.3 54514 55013.8
4444.89 54824.6 54945.9 54429 54487.7
4447.8 54900.9 54797.4 54520 54404.7
4450.71 54666.6 54906.4 54265 54491.6
4453.61 55151.8 54965.8 54689.8 54559.5
4456.52 55079 55003.3 54723.5 54601.1
4459.43 54779.1 54484.4 54389.8 54097.2
4462.34 53595 53967.4 53178.3 53583.2
4465.25 53528.2 53453.1 53181.3 53144.6
4468.15 53235.9 53876.8 53074.1 53660.4
4471.06 54866.2 54860.8 54725.8 54745.9
4473.97 56480.2 55877.6 56437.9 55752
4476.88 56286.3 55939.8 56092.2 55813.8
4479.78 55052.9 55586.4 54911.4 55465.1
4482.69 55420.1 55683.6 55391.6 55604.6
4485.6 56577.9 56140.4 56510.7 56100.1
4488.51 56423.2 56643.3 56398 56651.9
4491.41 56929 56944 57047 56978.3
4494.32 57479.8 57467.9 57489.7 57499.7
4497.23 57995 57963.6 57962.3 58004
4500.13 58415.9 58857.6 58560 58911.8
4503.04 60161.9 59446.9 60213 59517.8
4505.95 59762.9 60094.5 59780.3 60101.6
4508.86 60358.7 60248.8 60311.4 60252.5
4511.76 60624.9 60340.6 60665.9 60339.8
4514.67 60038 59840.3 60042.1 59816.2
4517.58 58858 58841.5 58740.6 58836.6
4520.48 57628.6 57717.7 57727.1 57753
4523.39 56666.4 56938.1 56791.3 57059.1
4526.3 56519.2 56702.1 56658.9 56820
4529.2 56920.9 57102.4 57009.9 57265
4532.11 57867.2 57636 58126.2 57910.2
4535.02 58119.8 58156.7 58594.3 58459
4537.92 58483.2 58385.1 58656.3 58760.3
4540.83 58552.3 58788.7 59030.2 59117.1
4543.74 59330.5 58913.5 59664.7 59273.6
4546.64 58857.6 58644.9 59126 58987.5
4549.55 57746.6 57662 58171.9 57948.1
4552.45 56381.8 56745.8 56546.5 56997.7
4555.36 56109.1 56461.9 56274.7 56692.1
4558.27 56894.7 56896.8 57255.1 57175.2
4561.17 57686.7 57927.4 57995.8 58312.6
4564.08 59200.9 58959.7 59686.9 59432.3
4566.98 59991.3 59788.8 60614.1 60286.5
4569.89 60174.2 60165.1 60558.3 60712.9
4572.8 60329.7 60533.1 60966.3 61123.7
4575.7 61095.4 60680.3 61846.6 61347.3
4578.61 60615.7 60757.1 61228.9 61416.4
4581.51 60560.3 60579.2 61173.8 61225
4584.42 60561.6 60610.1 61272.4 61257.3
4587.32 60708.3 60666.4 61325.8 61319.6
4590.23 60729.2 60551.1 61360.6 61185.1
4593.14 60215.8 60729.1 60868.9 61379.6
4596.04 61242.2 61115 61909.4 61796.2
4598.95 61887.1 61595 62610.3 62299.5
4601.85 61655.8 61767 62378.8 62551.1
4604.76 61758 61955.7 62664.2 62798.3
4607.66 62453.3 62340.8 63351.7 63302.5
4610.57 62811.2 62852 63891.7 63839.2
4613.47 63291.6 62786.5 64274.2 63802.8
4616.38 62256.8 62672.7 63242.6 63621.3
4619.28 62469.8 62768.2 63347.2 63739.5
4622.19 63578 63205.6 64628.6 64195
4625.09 63569.1 63327.1 64609.1 64359.6
4628 62834.2 61578.7 63841.2 64514.3
4630.9 58332.9 59534.3 65092.5 64306.1
4633.81 57435.8 57842.8 63984.7 64522.1
4636.71 57759.8 57722.5 64489.2 64419.4
4639.61 57972 58045.9 64784.4 64893.3
4642.52 58406 58157.6 65406.4 65047.9
4645.42 58094.8 58040.7 64952.8 64951.8
4648.33 57621.2 58151.5 64496.1 65030.6
4651.23 58738.5 58067.2 65642.9 64934.5
4654.14 57842 58381.3 64664.6 65277.9
4657.04 58563.4 58401.7 65526.3 65296.8
4659.94 58799.9 58598.9 65699.5 65496.6
4662.85 58433.3 58113.9 65263.9 64943.8
4665.75 57108.6 57304.4 63867.9 64129.8
4668.66 56371.3 57036.7 63257.5 63897.1
4671.56 57630.2 57493.8 64566 64456.7
4674.46 58480 58283.8 65546.6 65284.2
4677.37 58741.1 58543.8 65739.9 65550.3
4680.27 58410.4 58583.3 65364.5 65588.9
4683.18 58598.2 58746.6 65662.4 65788.8
4686.08 59231.2 58981.5 66339.4 66080.3
4688.98 59115 59174.7 66239.2 66286.3
4691.89 59178.1 59371.2 66280.2 66541.8
4694.79 59820.5 59572.8 67106.1 66804
4697.69 59719.8 59418.3 67025.7 66643.6
4700.6 58714.7 58793.1 65799.1 65964.6
4703.5 57944.8 58366.4 65068.9 65489.1
4706.4 58439.8 58366.1 65599.3 65566.3
4709.31 58713.8 58577.1 66030.6 65784
4712.21 58577.8 58633.2 65722.2 65823.1
4715.11 58607.9 58903.4 65716.5 66093
4718.01 59524.5 59336 66840.2 66606.8
4720.92 59875.8 59705.5 67263.6 67063.5
4723.82 59716.4 59526.2 67086.6 66888.3
4726.72 58986.4 59196.9 66314.6 66536.8
4729.63 58887.9 59091 66209.2 66443.4
4732.53 59398.6 58964.4 66806.4 66282.5
4735.43 58606.7 59061.8 65831.9 66373.8
4738.33 59180.1 58936.4 66483.1 66231.2
4741.24 59022.3 59152.9 66378.6 66490.4
4744.14 59256.4 59143.4 66609.6 66523
4747.04 59151.5 59382.9 66580.8 66766.3
4749.94 59740.8 59436.3 67108.5 66837.6
4752.85 59416.6 59564.7 66823.5 66991.5
4755.75 59536.8 59464.9 67042.5 66895.3
4758.65 59441.2 59423.3 66820 66867
4761.55 59291.7 59296.1 66738.3 66716.5
4764.45 59155.2 59274.8 66591.1 66754.6
4767.36 59377.3 59474.6 66934.3 67008.7
4770.26 59891.4 59803.8 67500.5 67391.3
4773.16 60142.6 60164.5 67739 67778
4776.06 60459.4 60559.9 68094.5 68202
4778.96 61077.5 60577.1 68772.6 68232.9
4781.86 60194.3 60467.5 67831.7 68112.4
4784.76 60130.6 59886.7 67733 67498.5
4787.67 59335.2 59764.7 66930.7 67376.9
4790.57 59828.4 59636.1 67467 67316.5
4793.47 59744.6 59866.3 67551.9 67594.3
4796.37 60025.8 59938.5 67764 67665.1
4799.27 60045.1 60016.2 67679.6 67741.6
4802.17 59977.6 59736.9 67781.1 67430.7
4805.07 59188 59319.3 66831.3 66960.9
4807.97 58792.3 58960.3 66270.2 66566.2
4810.88 58900.6 59056.5 66597 66690.3
4813.78 59476.7 59382.5 67203.6 67110.9
4816.68 59770.4 59230.2 67532.1 66905.8
4819.58 58443.5 58515.2 65981.6 66112.1
4822.48 57331.8 57605.3 64822.6 65139
4825.38 57040.6 56947.5 64612.9 64468.2
4828.28 56470.1 56782 63969.1 64289
4831.18 56835.2 56514.6 64285 63943.9
4834.08 56238.4 56343.7 63577.6 63702.2
4836.98 55957.5 55788.8 63244 63057.1
4839.88 55170.6 54863.9 62349.7 61991.1
4842.78 53463.7 53510.8 60379.7 60484.3
4845.68 51898.2 51945.4 58723.7 58744
4848.58 50474.4 50026.6 57128.7 56608.6
4851.48 47707.2 47279.3 53973.4 53508.3
4854.38 43656.3 43498.3 49422.8 49266.5
4857.28 39131.5 39107.5 44403.4 44360.4
4860.18 34534.7 35969.1 39254.8 40875.7
4863.08 34241.1 35189.6 38968.7 40030
4865.98 36793.1 37047.1 41866.6 42120
4868.88 40107.1 39758 45524.8 45144.4
4871.78 42373.7 42353.1 48041.7 48022
4874.68 44578.4 44762.8 50499.6 50723.2
4877.58 47336.2 47032.8 53628.2 53303.3
4880.48 49183.8 48703.2 55782.1 55218.6
4883.38 49589.7 50041.2 56245.7 56736.2
4886.27 51349.9 50937.5 58180.8 57759.1
4889.17 51872.8 52164.4 58850.8 59155.4
4892.07 53270.6 53258.1 60434.6 60461.3
4894.97 54631 54406.7 62098.5 61753.1
4897.87 55318.4 55174.1 62726.3 62635.6
4900.77 55572.9 55811.7 63082 63344.5
4903.67 56543.9 56437.2 64225.1 64102.2
4906.57 57194.9 57013.4 64999.6 64765.9
4909.47 57301.3 57292.9 65072.9 65095.2
4912.36 57382.6 57433.7 65213.1 65210.1
4915.26 57617.3 56876.9 65344.2 64582.6
4918.16 55630.7 56068.9 63190.3 63654.3
4921.06 54958.8 55432 62428.4 63017.3
4923.96 55706.4 56031.3 63433.3 63731.1
4926.86 57428.7 57154.5 65331.5 65040.1
4929.75 58328.3 57703.9 66355.5 65602.1
4932.65 57354.7 57459.4 65119.2 65317.8
4935.55 56695.2 57273.4 64478.8 65126
4938.45 57770.4 57842.6 65780.2 65836.4
4941.35 59062.3 58687.3 67250.4 66836.3
4944.24 59229.2 59608.9 67478.4 67872.9
4947.14 60535.3 60079.8 68889.8 68381.1
4950.04 60474.9 60321.9 68775.2 68677.7
4952.94 59955.6 60175.3 68368.2 68525.5
4955.83 60095.5 60027.4 68433.1 68413.5
4958.73 60031.2 60450.1 68439.1 68873
4961.63 61223.5 60830.1 69746.9 69326.9
4964.52 61235.6 61050.1 69794.7 69556.3
4967.42 60691.1 60957 69127.3 69471.2
4970.32 60944.3 60971.5 69491.5 69468.4
4973.22 61279 61355.1 69786.3 69924.8
4976.11 61841.9 61239.9 70496.6 69811.3
4979.01 60598.7 60174.8 69150.9 68600.7
4981.91 58083.7 58860.3 66154.5 67133.7
4984.8 57898.4 58308.5 66095.8 66515.4
4987.7 58943.4 58865.6 67295.9 67190.7
4990.6 59755 59839.7 68180.3 68305.4
4993.49 60820.7 60270.1 69440 68790.1
4996.39 60234.5 60250.1 68749.9 68755.6
4999.29 59695.2 59718.8 68076.8 68185.4
5002.18 59226.9 59297.2 67729.5 67702
5005.08 58969.5 59359.6 67299.8 67794.7
5007.97 59882.5 59633.6 68354.9 68088.4
5010.87 60048.9 59692.9 68610.6 68164.1
5013.77 59147.2 59317.2 67526.8 67750.5
5016.66 58755.5 59059.1 67114.2 67455.3
5019.56 59274.5 59546.5 67725 68033.4
5022.45 60609.5 60274.9 69261 68894.3
5025.35 60940.6 61016.1 69696.9 69763.2
5028.24 61498.1 61542.7 70331.7 70371.5
5031.14 62189.4 61809.5 71085.9 70648.4
5034.04 61740.8 61645.3 70527.6 70457.5
5036.93 61005.6 61070 69759 69790.9
5039.83 60463.5 60923.1 69086.2 69671.4
5042.72 61300.2 61307.9 70169 70152.5
5045.62 62160 61626.2 71202.4 70521.4
5048.51 61418.4 61823.7 70192.7 70739
5051.41 61892.7 62094.2 70822 71007.2
5054.3 62971.6 62601.8 72006.8 71632.9
5057.2 62941 63455.8 72069.8 72624.9
5060.09 64454.8 63627.1 73798.2 72825.8
5062.99 63485.6 63853.4 72609.3 73061.7
5065.88 63619.7 63370.7 72777.7 72492.8
5068.77 63006.7 63013.9 72091.3 72116.4
5071.67 62415.3 62237.7 71480.2 71309.5
5074.56 61291.1 61386.1 70357 70350.2
5077.46 60451.8 60585.1 69213.4 69444
5080.35 60012.4 60269.3 68761.6 69078.6
5083.25 60343.7 60492 69260.6 69329.7
5086.14 61119.9 61113.6 69966.9 70043.1
5089.03 61877.2 61738.9 70901.9 70720.6
5091.93 62219.7 62334.4 71293.1 71456.2
5094.82 62906.2 62159.6 72173.6 71268.2
5097.72 61352.9 61983.8 70337.8 71077.6
5100.61 61692.3 61697.5 70721.5 70728.5
5103.5 62047.4 61999.3 71126.3 71109.4
5106.4 62258.2 62098.4 71480.6 71259.4
5109.29 61989.6 62275.1 71171.3 71485.4
5112.18 62577.3 62335.7 71804.2 71535.4
5115.08 62440.2 62517.2 71630.6 71735.5
5117.97 62534 62163.5 71771.8 71351.1
5120.86 61516.4 61384.6 70650.8 70464.5
5123.76 60103.3 60750.7 68971.1 69758.7
5126.65 60632.2 60587.3 69654.3 69565.6
5129.54 61026.2 60826.4 70071.6 69864.9
5132.43 60820.7 60899 69868.9 69914.7
5135.33 60850 60873 69803.5 69881.7
5138.22 60948.4 60879.5 69972.7 69885.8
5141.11 60840.2 61012.5 69881.2 70045.8
5144 61249 61249.7 70283.6 70351.9
5146.9 61660 61609.7 70890.8 70777.3
5149.79 61920.2 61738.2 71157.6 70966.2
5152.68 61634.5 61772.5 70850.3 71009.6
5155.57 61762.8 61763.9 71020.9 70999.6
5158.47 61894.5 61733.5 71127.6 70936.6
5161.36 61543.3 61249.1 70661.2 70378.2
5164.25 60309.4 60136.5 69345.6 69096.1
5167.14 58556.9 58954.7 67281.4 67786.2
5170.03 57997.7 58468.9 66731.4 67235
5172.92 58852.1 59127.8 67692.1 68026.4
5175.82 60533.5 60169.1 69655.7 69218.2
5178.71 61121.7 60723.7 70306.7 69824.3
5181.6 60515.7 60387.9 69510.6 69463.2
5184.49 59526.2 59778.8 68572.4 68744.9
5187.38 59294.3 59150.3 68151.6 68082.5
5190.27 58630.3 59016.9 67523.4 67900
5193.16 59125.9 58686 68025 67534.5
5196.05 58301.7 58667.2 67055.1 67510
5198.94 58573.8 58360.3 67449.8 67186
5201.84 58205.3 58028 67053.1 66803.8
5204.73 57304.7 57927.6 65908.6 66708.1
5207.62 58272.8 58522.5 67162.6 67377.2
5210.51 59990 59500.4 69060.4 68526
5213.4 60238.5 60027.1 69354.9 69103.5
5216.29 59852.9 60403.9 68895.2 69533.4
5219.18 61120.4 60747.1 70350 69888.4
5222.07 61268.1 60803 70419.9 69886.3
5224.96 60020.4 59981.5 68889.2 68879.1
5227.85 58656 59261.3 67328.1 68047.5
5230.74 59107.4 58793 67925.3 67501
5233.63 58615.6 59081.8 67249.5 67884.1
5236.52 59522.3 59688 68477.4 68592.8
5239.41 60926.3 60781 70051.5 69926.9
5242.3 61894.6 61347.2 71251.8 70607.3
5245.19 61220.7 61428.3 70518.6 70757.3
5248.08 61169.8 61129.8 70501.6 70433.7
5250.97 60999 61023.7 70280.8 70330
5253.85 60902.4 60919.6 70207.5 70230.4
5256.74 60857.4 60838.2 70202.9 70159.3
5259.63 60754.7 60368.6 70067.4 69631.3
5262.52 59493.5 59671.8 68623.7 68823.7
5265.41 58767.2 58492 67780 67452.3
5268.3 57215.3 57690.8 65953.2 66550.1
5271.19 57089.7 57137.1 65917.1 65908.1
5274.08 57106.2 57465.9 65853.9 66268.5
5276.97 58201.7 57977.4 67034.3 66775.9
5279.85 58624.4 58652.5 67439.4 67497.9
5282.74 59131.3 59209.9 68020 68119.6
5285.63 59874.2 59966.3 68899.4 69025.6
5288.52 60893.6 60465.6 70157.5 69627.9
5291.41 60629.1 60786.8 69826.8 70035.7
5294.3 60837.8 60846.8 70122.6 70125.4
5297.18 61073.6 60759.4 70426.8 70095.5
5300.07 60366.7 60634.3 69737.2 70031.6
5302.96 60462.4 60663.4 69930.9 70131.1
5305.85 61161.1 61043.4 70725.3 70608.6
5308.73 61506.8 61246.9 71169.6 70826.5
5311.62 61072.8 60937.7 70584.5 70464.6
5314.51 60233.4 60564.1 69639.8 69998.5
5317.4 60386.2 60204.5 69771.1 69576.8
5320.28 59993.9 59838.3 69319.5 69151.3
5323.17 59134.8 59284.9 68363.3 68538.9
5326.06 58726.1 58552 67933.9 67696.4
5328.94 57795.2 58752.7 66791.8 67940.7
5331.83 59736.8 59118.7 69096.3 68360.1
5334.72 59824.1 59608.9 69192.2 68980.2
5337.6 59265.8 59493.4 68652.1 68846
5340.49 59390.3 59595.9 68693.8 68986.3
5343.38 60131.6 60048.4 69613.1 69502.5
5346.26 60623.3 60629 70200.6 70171
5349.15 61132.2 61103.7 70699.3 70707.4
5352.04 61555.7 61614.7 71222.4 71278.3
5354.92 62156.4 61814.2 71913.1 71506
5357.81 61730.5 61788.4 71382.5 71462.9
5360.69 61478.2 61112.1 71093 70666.7
5363.58 60127.7 60275.3 69524.7 69745.1
5366.47 59219.8 59450.1 68617.6 68810.2
5369.35 59002.7 59241.1 68288.4 68621.1
5372.24 59500.8 59728 68957.3 69181.3
5375.12 60680.5 60354.9 70298.2 69891.9
5378.01 60883.6 60682.5 70420.3 70248
5380.89 60483.4 60626.3 70025.6 70171.8
5383.78 60511.9 60457.4 70069.3 70007.1
5386.66 60376.8 60682.4 69926.3 70271.6
5389.55 61158.5 60667.1 70819.3 70256.5
5392.43 60466 60697 70024 70295.8
5395.32 60466.5 60216.3 70044 69743.3
5398.2 59716.5 59854 69161.8 69280.2
5401.09 59379.1 59221.2 68634.7 68523.4
5403.97 58568 58738.2 67773.8 67949.6
5406.86 58267.3 58362.5 67440.2 67574.8
5409.74 58252.1 58501.5 67510.2 67768
5412.63 58985.2 59089 68353.6 68473.6
5415.51 60029.7 59734 69557.1 69249.3
5418.39 60187.1 60262.1 69837.2 69864.8
5421.28 60569.7 60199.7 70200 69765.6
5424.16 59842.4 60094.3 69259.5 69632
5427.05 59870.8 59906.5 69436.6 69430.1
5429.93 60006.5 59913.3 69594.2 69484.1
5432.81 59862.7 60263.8 69421.5 69887.4
5435.7 60922.3 60828.5 70646.6 70523.1
5438.58 61700.3 61449.9 71501.2 71233.8
5441.46 61727 61461.4 71553.6 71238.3
5444.35 60956.8 61005.2 70660.1 70727.4
5447.23 60331.7 60883.8 69968.5 70579.1
5450.11 61362.9 60934.4 71108.7 70635.4
5453 61108.7 61045.9 70828.9 70763.4
5455.88 60666.1 60955.1 70352.5 70680.8
5458.76 61090.4 60775.4 70861 70470.8
5461.64 60569.5 60821.2 70198.9 70525.6
5464.53 60803.7 60952.6 70517 70702.6
5467.41 61484.7 61012.1 71391.8 70783.6
5470.29 60748.1 60587.3 70442 70293.2
5473.17 59529.1 59772.1 69045.7 69323.1
5476.06 59039.2 59272.9 68481.6 68729
5478.94 59250.5 59471.8 68659.7 68972.8
5481.82 60125.6 60132.4 69777.1 69745.9
5484.7 61021.1 60777.9 70800.9 70502.7
5487.58 61187.1 61202.5 70930.1 70993.9
5490.46 61399.2 61540.5 71250.8 71375.1
5493.35 62035.2 61539.4 71944.5 71404.9
5496.23 61183.7 61239.7 71019.5 71050.2
5499.11 60500.2 60803.6 70186.7 70556.4
5501.99 60727 60731.2 70462.9 70448.6
5504.87 60966.5 60762.3 70696.1 70473.9
5507.75 60593.3 60615.5 70262.6 70287
5510.63 60286.7 60544.8 69902.4 70231.7
5513.51 60754.3 60868 70530.1 70629.6
5516.4 61563 61257.1 71456.4 71080.7
5519.28 61454.1 61409.7 71255.6 71226.9
5522.16 61212.1 61242.3 70968.7 71019.9
5525.04 61060.8 60986.8 70835.4 70747.5
5527.92 60687.5 60976 70438.4 70745.1
5530.8 61179.6 60803.6 70961.6 70540.6
5533.68 60543.7 60911.1 70221.7 70668.7
5536.56 61010.1 61072.1 70822.9 70851.2
5539.44 61662.4 61160.2 71509.1 70992.7
5542.32 60808 60843.6 70646.1 70631
5545.2 60060.3 60553.7 69737.9 70301.2
5548.08 60792.9 60694.3 70519.6 70435.5
5550.96 61229.8 61282.3 71049.1 71108
5553.84 61824.3 61377.8 71755.4 71235.4
5556.72 61079.2 61475.7 70901.6 71351.7
5559.6 61523.5 61212.1 71398 71058.7
5562.47 61033.6 61186.5 70876.4 71037.8
5565.35 61002.5 60982 70839.1 70795.1
5568.23 60909.8 60799.4 70669.9 70601.1
5571.11 60485.8 60595 70294.4 70412.8
5573.99 60389.5 60565 70274.2 70426.8
5576.87 60819.6 60768 70711.7 70660.8
5579.75 61094.9 60927.8 70996.6 70798.7
5582.63 60869 60697.2 70687.9 70462.1
5585.5 60127.8 60445.1 69701.8 70124.2
5588.38 60338.6 60234.7 69983 69811.5
5591.26 60237.6 60170.8 69749.9 69776.5
5594.14 59936 60266.7 69596.7 69904.2
5597.02 60626.4 60161.6 70365.9 69813
5599.89 59922.4 60317.5 69476.5 69984.2
5602.77 60403.7 60389.6 70110.1 70104
5605.65 60842.6 60633.4 70725.3 70429.5
5608.53 60653.8 60786.3 70453 70614.3
5611.4 60862.4 60623 70664.6 70378.5
5614.28 60352.7 60430.2 70018 70146.9
5617.16 60075.6 60147.8 69758.2 69813.1
5620.04 60015.1 60040.5 69662.9 69693.6
5622.91 60030.7 60077.7 69659.5 69750.2
5625.79 60187.3 60346 69928.2 70050.9
5628.67 60819.9 60664.6 70564.9 70415
5631.54 60986.6 60787.4 70752 70535
5634.42 60555.8 60612.6 70288 70326.4
5637.3 60295.5 60301.3 69939.1 69970.6
5640.17 60052.7 60222.8 69684.7 69875.2
5643.05 60320.2 60259.1 70001.9 69939.1
5645.93 60404.3 60324.1 70130.6 70004.9
5648.8 60247.9 60437.3 69882.3 70146
5651.68 60659.6 60322.5 70425 70000.1
5654.55 60059.9 59881.6 69693.1 69486.3
5657.43 58925.2 59244.7 68340.7 68727.9
5660.3 58748.9 58621 68149.8 68010.5
5663.18 58188.8 58572.2 67540.8 67965.9
5666.06 58778.8 58896.9 68207.1 68352.9
5668.93 59723.2 59444.5 69310.8 69009.1
5671.81 59831.4 60009 69509.4 69651.7
5674.68 60472.4 60078.5 70134.8 69743.5
5677.56 59931.6 59999.4 69586.4 69616.4
5680.43 59594.2 59570.5 69128 69117.3
5683.31 59185.8 59124.8 68637.5 68612.9
5686.18 58594.5 58803.3 68073.2 68246.9
5689.06 58629.6 58828.6 68030.1 68277.5
5691.93 59261.6 59050 68729.2 68499
5694.8 59258.9 59227.1 68737.7 68688.8
5697.68 59161 59125.8 68599.7 68581.2
5700.55 58957.6 59017 68406.4 68439.8
5703.43 58932.5 58732.6 68313.4 68116.6
5706.3 58307.6 58408.4 67630 67755.9
5709.17 57985.1 58216.4 67324.3 67537
5712.05 58356.7 58326.3 67656.7 67650.8
5714.92 58637.1 58520.9 67971.6 67867.6
5717.8 58568.9 58759 67974.5 68145.1
5720.67 59071 59032.5 68489.1 68490.2
5723.54 59457.6 59102 69007.1 68546.8
5726.41 58777.3 59060.2 68144.1 68487.8
5729.29 58945.7 58961 68312.4 68338.4
5732.16 59159.9 58875 68558.6 68219.1
5735.03 58519.5 58889.9 67786.3 68235.5
5737.91 58990.4 58744.1 68361.4 68054.5
5740.78 58722.5 58801.3 68015.7 68105.7
5743.65 58691 58482.7 67940.1 67736.7
5746.52 58034.8 58323.5 67254.4 67543.5
5749.4 58244.9 58161.2 67436 67376.7
5752.27 58204 58102.1 67439.7 67295.1
5755.14 57857.5 58061.1 67009.5 67260.9
5758.01 58121.7 57869.9 67333.6 67044.5
5760.88 57630.6 57845.3 66790.4 67026.3
5763.76 57783.5 57655.4 66954.9 66802.2
5766.63 57552.2 57704.7 66661.4 66857
5769.5 57778.4 57678 66954.7 66802.1
5772.37 57703.4 56231.9 66790.1 66949.2
5775.24 53213.9 54663.3 67102.7 66931.1
5778.11 53072.7 53002.6 66900.7 66781
5780.98 52721.3 52786.1 66339.6 66500.8
5783.86 52564.1 52602.9 66262.1 66238.6
5786.73 52523.4 52760.9 66114.2 66416.1
5789.6 53195.3 52955.3 66872.1 66583.5
5792.47 53147.1 53091.3 66764.3 66704.4
5795.34 52931.5 53073 66476.9 66660.8
5798.21 53140.4 53111.7 66741.3 66697.9
5801.08 53263.1 53071.7 66875.5 66676.6
5803.95 52811.5 52897.2 66413 66449.4
5806.82 52616.9 52832.9 66059.8 66364.2
5809.69 53070.2 53053.3 66619.8 66563.2
5812.56 53472.9 53237.4 67010 66754
5815.43 53169.2 53391.6 66632.1 66934.5
5818.3 53532.6 53229.9 67161.5 66775.4
5821.17 52987.7 53423.5 66532.6 67006.1
5824.04 53750.2 53308.5 67324.1 66797.9
5826.91 53187.6 53351.7 66537.1 66812.7
5829.77 53117.3 53306.6 66576.8 66725.8
5832.64 53614.9 53451.6 67063.4 66908.5
5835.51 53622.6 53496 67085.3 66910
5838.38 53250.4 53472.3 66581.3 66927.6
5841.25 53543.9 53391 67116.4 66837
5844.12 53378.7 53289.6 66813.3 66720.5
5846.99 52946.4 53200.7 66232 66518.6
5849.86 53277.2 52565.6 66510.7 65714.4
5852.72 51473.3 52201.5 64400.7 65258.6
5855.59 51853.9 51813.1 64864.4 64801.9
5858.46 52112.1 52046.1 65140.6 65071.1
5861.33 52172.3 52353.8 65208.3 65401.7
5864.2 52777 52642.8 65856.1 65678.9
5867.06 52979.1 52998.3 65972.1 66060.5
5869.93 53238.8 53252.6 66353.2 66310.8
5872.8 53540 53427.8 66607 66556.5
5875.67 53504.5 53353.3 66709.1 66490
5878.53 53015.3 53113.8 66153.7 66247.2
5881.4 52821.5 52794 65878.6 65850.5
5884.27 52545.2 52218.2 65519.1 65121.6
5887.13 51287.8 51198.6 63967.2 63869.6
5890 49762.8 50331.6 62122.4 62819.3
5892.87 49944.1 49999 62368.1 62338.1
5895.73 50290.1 50538.5 62523.7 62919.5
5898.6 51381.1 51166.5 63866.7 63576.1
5901.47 51828.2 51825.9 64337.9 64350.6
5904.33 52268.3 52102.2 64847.4 64667.4
5907.2 52210.2 52293.9 64816.8 64899.1
5910.06 52403.1 52259.8 65033.2 64921.1
5912.93 52166.1 52229 64913.3 64890.3
5915.79 52117.7 52294.4 64724.4 64980.5
5918.66 52599.5 52346.6 65303.8 64976.4
5921.53 52322.7 52426.2 64901 65027.5
5924.39 52356.5 52395.7 64877.6 64951.7
5927.26 52508.1 52163.6 65076.4 64648
5930.12 51626.4 51954.1 63989.9 64377.7
5932.99 51727.9 51820.4 64066.7 64217
5935.85 52106.8 52058.9 64594.5 64497.3
5938.72 52342.1 52223.5 64830.7 64697.4
5941.58 52221.6 52136.6 64667.1 64547.9
5944.44 51846.3 51896.1 64146 64236.3
5947.31 51620.4 51804.4 63895.9 64078.6
5950.17 51946.5 51694.8 64193.7 63951.8
5953.04 51517.6 51727 63765.7 63998.9
5955.9 51717 51712.6 64037.2 63965.8
5958.76 51903.3 51883.4 64094.6 64150.3
5961.63 52029.9 51805.5 64319.2 63964.4
5964.49 51483.2 51706.6 63479.3 63838.2
5967.36 51606.6 51712.4 63716 63806.3
5970.22 52047.3 51706.6 64223.5 63857.7
5973.08 51466.1 51645.8 63633.7 63798.8
5975.95 51423.9 51214 63539.1 63263
5978.81 50751.9 50932.9 62616.1 62877.4
5981.67 50622.7 50778.5 62476.9 62605.2
5984.53 50960.8 50644.1 62722.7 62432
5987.4 50348.7 50765.5 62096.6 62520
5990.26 50986.9 50859.5 62740.9 62636.6
5993.12 51242.7 51069 63072.3 62814.8
5995.98 50977.4 51187.4 62631.2 62956
5998.85 51342 51159.3 63164.5 62944.8
6001.71 51158.5 51003.9 63038.6 62778.2
6004.57 50511.2 50735 62131.4 62451.4
6007.43 50535.4 50550.9 62184.1 62170.5
6010.29 50606.2 50430.9 62195.9 62006.6
6013.15 50150.9 50350.7 61639.8 61882.7
6016.02 50294.9 50213.7 61812.3 61689.8
6018.88 50195.3 50095.4 61617.4 61539.4
6021.74 49795.9 49970.3 61188.4 61371.7
6024.6 49919.9 49987.5 61309.5 61352.9
6027.46 50246.7 50188.3 61560.9 61525.2
6030.32 50398.3 50318.8 61705.4 61624.2
6033.18 50311.3 50409.5 61606.5 61718.1
6036.04 50518.9 50455.5 61842.3 61813
6038.9 50536.5 50467.8 61990 61826
6041.76 50348.2 50324.7 61645.7 61640.9
6044.62 50089.4 50288.5 61287.1 61562.6
6047.48 50427.8 50223.9 61755 61475.8
6050.34 50154.5 50312.6 61385.3 61573
6053.2 50355.3 50277.4 61578.7 61474.6
6056.06 50322.5 50469.2 61459.6 61715.6
6058.92 50729.7 50438.3 62108.5 61674.6
6061.78 50262.6 50330.6 61455.9 61543.2
6064.64 49999.5 50133.7 61065.2 61256.8
6067.5 50139 50228.6 61249.3 61357.2
6070.36 50547.2 50348.3 61757.2 61477.8
6073.22 50358.8 50344.6 61426.9 61487.6
6076.08 50127.7 49949.5 61278.7 60995.6
6078.93 49362 49707.3 60281.1 60683.8
6081.79 49632.3 49562 60491.8 60459.6
6084.65 49691.7 49621.7 60606 60528
6087.51 49541.1 49611.2 60486 60518.6
6090.37 49600.8 49517.5 60463.9 60391
6093.23 49410.7 49562.5 60223.2 60393
6096.08 49676.2 49550.7 60492 60354.3
6098.94 49565.2 49480.6 60347.7 60247.7
6101.8 49200.3 49271.1 59903.4 60000.6
6104.66 49047.9 49121.4 59750.6 59809.7
6107.51 49115.9 49187.1 59775.1 59856.2
6110.37 49397.4 49176.6 60042.8 59807.4
6113.23 49016.5 49255.7 59604.3 59885.4
6116.09 49353.4 49234.3 60009.1 59853.2
6118.94 49333.2 49338.8 59946.1 59933.2
6121.8 49330 49204.3 59844.4 59723.5
6124.66 48949.7 48941.2 59380.2 59404.3
6127.51 48544 48743.6 58988.3 59176.5
6130.37 48737.1 48619.2 59161 59063.5
6133.22 48576.4 48375.6 59041.2 58756.5
6136.08 47813.5 47744.9 58067.2 58015.1
6138.94 46844.7 47159.1 56936.9 57242.6
6141.79 46819 46853.9 56723.7 56823.3
6144.65 46897.9 47107.7 56809.3 57046.6
6147.5 47606.2 47332.3 57606.8 57309
6150.36 47492.8 47607 57510.8 57598.4
6153.21 47721.9 47754.6 57677.6 57737.1
6156.07 48049 47898.2 58022.9 57870
6158.92 47923.8 47948.6 57909.6 57924.7
6161.78 47872.9 47995.2 57841.5 57988
6164.63 48188.8 47954.7 58212.8 57951.8
6167.49 47802.4 47986.8 57801.3 57966.5
6170.34 47969.2 47793.9 57885.5 57720.9
6173.2 47610.1 47684.3 57475.9 57563.6
6176.05 47473.6 47512.2 57329.3 57344.1
6178.91 47452.8 47692.6 57227.1 57553.5
6181.76 48151.5 47865.9 58104.2 57701.4
6184.61 47993.3 47862.5 57772.9 57677.1
6187.47 47442.8 47603.4 57154 57353.5
6190.32 47374.2 47442.7 57133.6 57175.6
6193.17 47511.2 47601.1 57239.1 57374.2
6196.03 47918 47743.6 57749.8 57519.6
6198.88 47801.7 47910.1 57569.8 57665.9
6201.73 48010.7 47786.7 57678.2 57508.7
6204.59 47547.7 47765 57278.2 57476
6207.44 47736.7 47669.1 57471.7 57369.1
6210.29 47722.9 47709.3 57357.4 57373.5
6213.14 47668.2 47611.1 57291.3 57228.7
6216 47442.2 47565 57037.5 57169
6218.85 47584.7 47403.7 57178.1 57006.5
6221.7 47184.3 47277 56804 56839.8
6224.55 47062 47189.8 56537.3 56729.6
6227.41 47323.1 47102.7 56847.6 56572.7
6230.26 46923 46853.6 56333.3 56277.8
6233.11 46314.8 46659 55652.4 56049
6235.96 46739.2 46334.1 56161.3 55663.6
6238.81 45948.2 46318.4 55177.3 55596.2
6241.66 46267.6 46053.1 55449.9 55238.4
6244.51 45943.5 45859.6 55088 54989.1
6247.36 45367.6 45680.9 54429.2 54754.1
6250.21 45731.6 45565.8 54745 54574.3
6253.07 45598.1 45724.7 54548.8 54714.8
6255.92 45844.4 45846.2 54850.6 54838.5
6258.77 46096.1 45938.6 55116 54931
6261.62 45875.2 45960.5 54826.4 54951.2
6264.47 45910 46058.1 54911.3 55053.5
6267.32 46389.2 46043.2 55422.8 55035.1
6270.17 45830.4 46062.8 54771 55027.7
6273.02 45968.8 45725.2 54889.3 54604.8
6275.87 45376.4 45525.7 54154.1 54383.5
6278.71 45231.9 45363.5 54107 54167.1
6281.56 45482.2 45311.1 54240.1 54098.8
6284.41 45219.1 45364.3 53949.4 54113.9
6287.26 45391.6 45324.4 54152.1 54055.2
6290.11 45362.6 45516.4 54064 54277.7
6292.96 45795 45598.2 54617.1 54418.7
6295.81 45637 45387 54575 54270.5
6298.66 44729 45037.5 53619.3 53862.5
6301.51 44746.5 44895.8 53393.2 53634.3
6304.35 45211.9 45116.8 53890.5 53727.6
6307.2 45392.1 45379.7 53899.1 53943.9
6310.05 45535.1 45293.8 54042 53746.1
6312.9 44954.1 45043.4 53297.2 53432.8
6315.74 44641 44870.3 52959.2 53216.2
6318.59 45015.9 44784.2 53392.2 53125.3
6321.44 44695.7 44983.9 53024.6 53369.1
6324.29 45240 45026.4 53690.6 53403.4
6327.13 45143.4 45184.1 53495 53591.5
6329.98 45169 45155.5 53588.8 53531.9
6332.83 45154.2 44979.6 53511.9 53330.5
6335.67 44615.5 44780.1 52891 53086.2
6338.52 44570.7 44661.4 52855.6 52974.6
6341.37 44797.9 44535.8 53177.3 52818.2
6344.21 44238.8 44496.3 52421.6 52760.3
6347.06 44452.2 44508 52682 52740.7
6349.9 44833.2 44657.7 53118.5 52899.5
6352.75 44687.9 44833 52897.9 53069
6355.6 44978 44776.4 53190.7 52986.2
6358.44 44663.3 44753.5 52869.9 52983
6361.29 44619.1 44735.2 52888.5 52969.7
6364.13 44923.3 44702.1 53150.6 52910.5
6366.98 44563.9 44438.8 52692.5 52546.2
6369.82 43829.3 44152.3 51795.4 52194.6
6372.67 44063.8 44162.1 52095.8 52176.1
6375.51 44593.2 44393 52637 52428.3
6378.36 44521.8 44336.7 52552 52340.7
6381.2 43895 44214.3 51833 52199
6384.04 44226.1 44031.5 52212 51964.2
6386.89 43973.5 44027.6 51847.6 51930.8
6389.73 43883.2 43820.8 51732.9 51651.4
6392.58 43605.6 43742.2 51373.7 51557.2
6395.42 43737.7 43605.6 51565.1 51384.2
6398.26 43473.4 43785.2 51213.9 51578.6
6401.11 44144.6 43798.8 51956.9 51573.8
6403.95 43778.5 43938.9 51550.6 51705.1
6406.79 43893.6 43571.6 51607.8 51264.4
6409.64 43042.8 43416.7 50634.7 51080.1
6412.48 43313.8 43105.9 50997.8 50737.4
6415.32 42961 43115.5 50579.7 50744.1
6418.16 43071.6 43029.6 50654.8 50585.6
6421.01 43056.4 43045.9 50522.2 50546.5
6423.85 43009.9 42953.5 50462.6 50419.4
6426.69 42794.4 42884.1 50273.2 50349.9
6429.53 42847.9 42775.4 50314 50233
6432.37 42684 42891.4 50111.6 50363.6
6435.22 43142.3 43032.3 50665.2 50484.4
6438.06 43270.5 43076.7 50676.4 50543
6440.9 42817.2 43138.1 50287.5 50558.1
6443.74 43326.6 43085.2 50710.4 50512.2
6446.58 43111.8 43092.3 50538.6 50465.6
6449.42 42838.6 42838 50147.7 50189.7
6452.26 42563.7 42569.5 49882.7 49865.9
6455.1 42306.2 42448.4 49567.3 49720.6
6457.94 42475.3 42384.7 49711.6 49642
6460.78 42372.6 42382.2 49647 49648.5
6463.62 42298.6 42498.7 49586.9 49776.6
6466.46 42824.9 42576.7 50096 49812.6
6469.3 42606.7 42752.2 49754.8 49958.6
6472.14 42825.1 42737.6 50025 49913.5
6474.98 42781 42648.1 49960.5 49797.2
6477.82 42338.1 42344.2 49406.1 49441.2
6480.66 41913.7 42278.4 48956.8 49322.9
6483.5 42583.6 42174.5 49605.6 49176.5
6486.34 42026.2 42233.9 48966.9 49216.3
6489.18 42091.8 41681.2 49076.3 48609.3
6492.02 40925.5 40852.9 47784.6 47689.3
6494.86 39541.5 40194.7 46207.1 46912.1
6497.7 40117.3 40337.7 46744.6 47026
6500.53 41354.2 40900.6 48126.4 47610.3
6503.37 41230.4 41410.6 47960 48163.8
6506.21 41647.2 41535.4 48404.9 48284.3
6509.05 41728.7 41554.6 48488 48312.7
6511.89 41288 41270.8 48045 48017.8
6514.72 40795.7 40994.6 47520.3 47723.8
6517.56 40900.1 40894.3 47606 47592.6
6520.4 40987 41008.1 47651.5 47697.3
6523.23 41137.2 40952.3 47834.4 47595.6
6526.07 40732.6 40837.2 47300.9 47438.5
6528.91 40641.9 40570.7 47180.2 47095.1
6531.75 40337.5 40309.4 46804.3 46759.6
6534.58 39948.9 40033.1 46294.4 46421.2
6537.42 39812.8 39772.2 46165 46107.2
6540.25 39554.9 39166.7 45862.3 45417.8
6543.09 38132.3 38337 44226.1 44519.2
6545.93 37323.9 37418.6 43469.4 43454
6548.76 36799.7 36537.2 42666.4 42437.4
6551.6 35488.1 35310.7 41176.4 40965.6
6554.43 33644.4 33234.4 39054.1 38585.5
6557.27 30570.7 30344 35526 35269.5
6560.1 26816.8 27703.6 31228.3 32209.5
6562.94 25723.3 26700.2 29874.1 30974.2
6565.77 27560.4 27806.5 31820.1 32111.7
6568.61 30135.9 30156.7 34640.7 34689.4
6571.44 32773.9 32480.8 37607.3 37312.6
6574.28 34532.6 34517.5 39690 39673
6577.11 36246 35902.8 41721.8 41297.1
6579.94 36929.9 36869.8 42479.6 42436.5
6582.78 37433.5 37572.9 43108.1 43256.1
6585.61 38355.4 38165.8 44180.5 43975
6588.45 38708.5 38669.6 44636.3 44555
6591.28 38945 38943.8 44848.1 44873.9
6594.11 39177.8 39304.5 45137.1 45239.3
6596.95 39790.7 39594.2 45732.6 45559
6599.78 39813.9 39910.4 45807.2 45903.1
6602.61 40126.7 40103.6 46169.3 46139.2
6605.44 40370.4 40204 46441 46234
6608.28 40114.9 40129.4 46091.5 46140.1
6611.11 39903.1 40112.6 45887.8 46083
6613.94 40319.7 40168.9 46269.7 46133.2
6616.77 40284 40411.7 46242.1 46372.9
6619.61 40631.3 40577.7 46606.9 46547.1
6622.44 40817.9 40621 46792.3 46559.5
6625.27 40413.9 40553 46279.3 46469.5
6628.1 40427.2 40272.4 46336.9 46150.2
6630.93 39976 40096.8 45834.4 45947.8
6633.76 39887.2 40014.6 45672.1 45856.2
6636.59 40180.6 40130.8 46062.1 45983.3
6639.42 40324.5 40347.3 46215.6 46231
6642.26 40536.8 40276 46415.4 46129.5
6645.09 39966.7 40211 45757.6 46035
6647.92 40129.5 40074.5 45931.9 45855
6650.75 40127.4 40185.6 45875.5 45951.4
6653.58 40299.9 40286 46046.7 46050.6
6656.41 40430.8 40496.4 46229.6 46279.3
6659.24 40758.6 40556.4 46561.5 46316.8
6662.07 40479.8 40579.2 46159.2 46313.6
6664.9 40499.4 40394.1 46220.1 46097.3
6667.72 40203.3 40374.6 45912.7 46098.2
6670.55 40421.3 40284.6 46161.8 45991.7
6673.38 40229.2 40082 45900.5 45718.1
6676.21 39595.4 39925.9 45092 45512.3
6679.04 39953.2 39855.1 45544.4 45399.4
6681.87 40016.6 40033.1 45561.6 45599.5
6684.7 40129.5 40067.3 45692.4 45623.5
6687.53 40055.8 40047.7 45616.5 45601
6690.35 39957.9 40138.3 45494.2 45692.5
6693.18 40401.3 40266.5 45966.7 45821.1
6696.01 40440.5 40305.1 46002.2 45824.2
6698.84 40073.5 40096.3 45503.6 45559.7
6701.66 39775 39875.4 45173.3 45299.7
6704.49 39777.7 39827.8 45222.1 45231.5
6707.32 39930.8 39838.8 45299.2 45229.4
6710.14 39807.7 39825.4 45167 45189.4
6712.97 39737.8 39823.5 45102 45181.7
6715.8 39924.9 39751.6 45276.1 45065.6
6718.62 39592.3 39653.9 44818.7 44933.5
6721.45 39444.6 39581.9 44705.9 44850.2
6724.28 39708.8 39640.2 45026.2 44903.3
6727.1 39767.2 39707.4 44977.7 44952.8
6729.93 39646.1 39647.5 44854.6 44856.4
6732.75 39529.3 39604.1 44736.9 44798.5
6735.58 39636.8 39629.7 44804.1 44808.1
6738.41 39723.1 39489.2 44883.2 44634.9
6741.23 39107.8 39443.2 44217.3 44564.8
6744.06 39498.6 39202.7 44593.8 44285.4
6746.88 39001.6 39303.6 44045.1 44372
6749.7 39410.7 39169.2 44477.2 44223
6752.53 39095.3 39171.4 44146.7 44206.9
6755.35 39008.3 39079 43996.7 44106.6
6758.18 39133.5 39126.2 44176.5 44131.7
6761 39236.9 39122.8 44221.8 44106.3
6763.83 38998.1 39159.5 43920.7 44103.7
6766.65 39243.5 39014.9 44168.7 43930.6
6769.47 38803.1 39036.4 43702.4 43941.1
6772.3 39062.6 38894.6 43952.2 43780.8
6775.12 38818.1 38924.6 43687.8 43802
6777.94 38893.1 39079 43766 43961.9
6780.77 39525.7 39123.5 44431.9 43995.8
6783.59 38951.7 38177.5 43789.6 44053.5
6786.41 36055 36939.8 43939 43742.3
6789.23 35812.8 35819 43498.2 43584.4
6792.06 35589.3 35627.1 43315.9 43315.1
6794.88 35479.2 35566.7 43131.1 43256.6
6797.7 35631.7 35552.1 43322.9 43202.8
6800.52 35545.4 35702.4 43154.2 43330.4
6803.34 35930 35739.4 43513.9 43325.1
6806.16 35742.7 35772.8 43307.2 43329.6
6808.99 35645.7 35648.7 43167.6 43172.5
6811.81 35557.8 35486.7 43042.8 42962.9
6814.63 35256.5 35514.4 42678.4 42967.2
6817.45 35728.8 35461.9 43180.5 42830.6
6820.27 35400.4 35459.2 42633 42728.9
6823.09 35248.4 35327.4 42373.3 42547.4
6825.91 35333.4 35328.9 42636 42544
6828.73 35404.8 35471.6 42622.6 42751.4
6831.55 35676.7 35495.3 42995.6 42725.6
6834.37 35404.4 35378.7 42558.6 42585
6837.19 35054.8 35028.1 42200.8 42135.7
6840.01 34625 34861 41647.9 41878.5
6842.83 34903.2 34832.5 41786.8 41796.1
6845.65 34969.2 34894.2 41953.8 41785
6848.47 34810.1 34803.7 41614.4 41694.4
6851.28 34631.9 34596.2 41515.1 41456.8
6854.1 34346.6 34552.5 41241 41368
6856.92 34679 34541.7 41347.9 41265.4
6859.74 34599.5 34086.8 41207.4 40709.4
6862.56 32981.9 32299.3 39572.9 38772.1
6865.38 29316.7 29752.7 35535.9 35903.1
6868.19 26959.5 27732.9 32600.6 33489.2
6871.01 26922.5 27129.4 32331.1 32590.3
6873.83 27506.3 27999.6 32839.4 33335.4
6876.65 29570.1 29368.8 34835.7 34809.4
6879.46 31029.9 30595 36753.1 36171.1
6882.28 31185 30959.5 36924.4 36664.3
6885.1 30663.4 30764.6 36315.4 36490.6
6887.91 30445.3 30537.1 36232.1 36242.4
6890.73 30502.5 30475.8 36179.8 36160.3
6893.55 30479.6 30490 36069 36113.3
6896.36 30487.8 30624.4 36091.3 36229.3
6899.18 30905.7 30670.8 36527.8 36277.5
6901.99 30618.9 31202.6 36213.3 36874.1
6904.81 32083.1 31484.3 37881.1 37216.8
6907.62 31750.9 31858.7 37556.1 37626.9
6910.44 31742.1 31869.6 37443.6 37617.4
6913.25 32115.8 32127.2 37852.4 37834.5
6916.07 32523.8 32434.5 38207.4 38167.5
6918.88 32664 32637.8 38442.7 38392.7
6921.7 32725.7 32710.1 38527.9 38459.7
6924.51 32740.7 32758.1 38408.4 38522.1
6927.33 32807.9 32782.2 38630 38486.9
6930.14 32798.1 32818.5 38422.3 38539.8
6932.96 32849.5 32805.1 38567 38479.6
6935.77 32767.8 32754.3 38449.4 38434.8
6938.58 32645.6 32661.4 38288.1 38292.2
6941.4 32570.8 32550.2 38139.2 38124.6
6944.21 32434.1 32538.2 37946.6 38082
6947.02 32609.7 32592.7 38160.2 38099.5
6949.84 32734.2 32552.8 38191.7 38046.7
6952.65 32314.6 32518.5 37788.4 37905.8
6955.46 32506.8 32501.6 37737.3 37842.9
6958.27 32683.4 32588.2 38003 37914.3
6961.09 32574.3 32755.1 38002.5 38117.4
6963.9 33007.7 32742.1 38346.8 38092.5
6966.71 32644.3 32786.2 37928.2 38083.7
6969.52 32706.6 32573.3 37976.2 37831.6
6972.33 32368.8 32415.6 37590.3 37638.7
6975.14 32171.4 32196.3 37349.5 37348.1
6977.95 32048.6 32122.9 37104.4 37239.8
6980.77 32148.8 32101.1 37265.6 37176
6983.58 32106.1 32077.9 37157.9 37135.5
6986.39 31979 32018.4 36983 37007.9
6989.2 31970.2 31954.9 36882.7 36885.6
6992.01 31915.7 31901.9 36791.2 36799.5
6994.82 31819.8 31878.7 36724.5 36755.2
6997.63 31900.6 31752.1 36749.8 36647.4
7000.44 31535.9 31574.7 36467.9 36431.9
7003.25 31287.5 31471.1 36077.9 36290.6
7006.06 31589.9 31446.4 36325.9 36225.7
7008.87 31461.9 31482.4 36273.3 36245.4
7011.67 31395.4 31318 36137.2 36051.8
7014.48 31096.7 31237.3 35745 35974.1
7017.29 31219.9 31227.3 36040.1 35955.2
7020.1 31365.4 31249.5 36080.6 36003.2
7022.91 31163.2 31339 35888.8 36025.6
7025.72 31488.4 31242.2 36107.4 35851.9
7028.53 31075 31264.8 35559.6 35822.7
7031.33 31231 31052.1 35801 35560.2
7034.14 30850.3 31013.1 35319.9 35492.3
7036.95 30957.9 30936.2 35356 35372.4
7039.76 31000.4 30996.9 35441.5 35396.7
7042.56 31032.5 31042.3 35392.8 35432.8
7045.37 31094 31047.1 35464.1 35418
7048.18 31014.9 30999 35397 35353.2
7050.98 30888.2 30946.5 35198.6 35253.1
7053.79 30936.5 30922.6 35163.8 35178.1
7056.6 30943.1 30943.2 35171.8 35194.6
7059.4 30950.1 30784.8 35248.2 35033.8
7062.21 30461.2 30614.6 34681.6 34842.5
7065.01 30432.4 30472.8 34597.9 34648.9
7067.82 30524.8 30500.5 34667.1 34665.4
7070.62 30544.3 30498 34731.1 34633.1
7073.43 30425 30613.8 34501 34723.6
7076.23 30872.1 30550.7 34938.6 34574.7
7079.04 30355 30533.8 34284.5 34533.5
7081.84 30374.3 30301.7 34377.3 34274.7
7084.65 30175.9 30222.4 34162.2 34194.9
7087.45 30117.1 30080.4 34045.2 34046.3
7090.26 29948.2 30029.1 33931.4 33962.2
7093.06 30021.9 29962.9 33910.1 33860.4
7095.86 29918.6 29978.5 33739.8 33827.6
7098.67 29995.1 29904.5 33832.9 33707.2
7101.47 29799.8 29991.4 33548.8 33777.1
7104.27 30179.3 30072.6 33949.6 33823.5
7107.08 30238.8 30026.4 33972.1 33745.9
7109.88 29661.1 29776.7 33315.9 33442.3
7112.68 29430.3 29478.6 33039 33088.9
7115.49 29344.5 29371.1 32911.7 32927.6
7118.29 29338.6 29228.9 32832 32748.9
7121.09 29003.5 29212.2 32503.1 32743
7123.89 29294.3 29178.6 32893.8 32670.5
7126.69 29237.8 29264.5 32614.5 32754.1
7129.49 29261.4 29330.8 32754 32774.8
7132.3 29493.3 29301.7 32955.8 32754.1
7135.1 29150.4 29268.7 32552.4 32688.3
7137.9 29162.4 29245.2 32556.8 32620.6
7140.7 29422.8 29284 32752.5 32654.2
7143.5 29266.8 29245.3 32653.2 32628.2
7146.3 29046.5 29147.5 32479 32544.3
7149.1 29129.3 28964 32500.8 32347.6
7151.9 28716.2 28965.7 32063 32284.1
7154.7 29051.7 28840.4 32288.5 32090.8
7157.5 28753.2 28776.6 31921 31995.7
7160.3 28524.8 28430.6 31777.6 31647
7163.1 28014 28089.5 31242.4 31292.6
7165.9 27729.8 27754.1 30857.9 30905.1
7168.7 27518.5 27469.8 30614.9 30528.4
7171.5 27161.2 27345.4 30112.5 30353.2
7174.3 27356.6 27198.8 30332.4 30167.9
7177.09 27078.6 27173 30058.9 30143.2
7179.89 27083.9 26893.6 30038.2 29808.8
7182.69 26518.4 26583.3 29329.2 29437.4
7185.49 26147.7 26281.1 28944.7 29064
7188.29 26177.1 26189.1 28918.1 28939.6
7191.08 26242.6 26398.6 28955.9 29138.3
7193.88 26776.1 26573 29540.7 29327.3
7196.68 26700.2 26714.7 29485.1 29497.7
7199.48 26667.9 26647.3 29467.3 29412
7202.27 26573.7 26604.3 29283.6 29320.3
7205.07 26571.2 26635.3 29209.9 29316
7207.87 26760.8 26814 29454.5 29480.5
7210.66 27109.8 26998.9 29777.2 29662.1
7213.46 27126.2 27059.9 29754.5 29713.7
7216.25 26943.6 27042.6 29609.3 29683.7
7219.05 27058.1 26946 29687.4 29553
7221.84 26836.4 26894.8 29362.3 29475.7
7224.64 26790 26725.9 29377.5 29282.3
7227.44 26551.2 26520.7 29107.3 29050
7230.23 26221 26251.2 28665.3 28724.7
7233.02 25981.5 26107.8 28401.5 28514.7
7235.82 26120.9 25945.2 28477.3 28320.4
7238.61 25733.1 25842.5 28082.3 28174.4
7241.41 25673.3 25802.8 27963.6 28141.1
7244.2 26001.9 25884.1 28377.4 28234.4
7247 25977.1 25910.5 28362.1 28263.2
7249.79 25752.4 25885.6 28050.2 28218.4
7252.58 25927.2 25890.4 28242.9 28168.2
7255.38 25991.5 26032.3 28211.5 28296.8
7258.17 26178.1 26064.2 28435.9 28313.4
7260.96 26022.9 25928.5 28292.7 28188.3
7263.75 25584.6 25781 27836.3 28000.9
7266.55 25735.6 25739.8 27873.6 27891.5
7269.34 25899.4 25679.2 27964.7 27771.3
7272.13 25402.7 25414.2 27475.5 27490.7
7274.92 24940.5 25268.6 27032 27378.5
7277.72 25462.5 25396 27628 27495.1
7280.51 25784.9 25464.5 27825.2 27581.8
7283.3 25146.1 25444.4 27292.2 27534.3
7286.09 25402.3 25129.3 27485.6 27202.2
7288.88 24839.5 25109.7 26828.9 27127.7
7291.67 25087.3 25124.3 27068.7 27079.5
7294.46 25446.2 25356.8 27341 27286.4
7297.25 25537 25403.3 27449.7 27309.6
7300.04 25226.8 25340.5 27138.2 27258.6
7302.83 25257.7 25157.5 27187.8 27083
7305.62 24988 25165.8 26923 27064.9
7308.41 25251.6 25081.4 27083.8 26939.7
7311.2 25004.7 25181.6 26812.4 26996.6
7313.99 25288.6 25203.9 27093.5 27014.2
7316.78 25318.4 25329.9 27136.6 27150.6
7319.57 25382.6 25376.7 27221.6 27201.6
7322.36 25429.2 25335.7 27246.6 27131.9
7325.15 25195.3 25320 26927.5 27082.2
7327.94 25335.6 25240.9 27072.4 26952.8
7330.72 25191.7 25297.4 26858.5 26979.4
7333.51 25365 25342.9 27007.1 27029.6
7336.3 25472 25458 27223.1 27169.4
7339.09 25537 25465.1 27277.9 27178.8
7341.87 25386.4 25363.1 27035.4 27071.5
7344.66 25166 25142.2 26901.1 26812
7347.45 24874.4 24937.7 26499.5 26586.8
7350.24 24772.8 24870.7 26360 26466.7
7353.02 24964.9 24896.6 26540.7 26458.2
7355.81 24952.1 24944.2 26473.9 26500.5
7358.59 24915.7 24894.9 26487 26426.9
7361.38 24817 24843.4 26319.8 26365.1
7364.17 24797.6 24752 26288.7 26251.9
7366.95 24641.5 24692.7 26147.2 26197.4
7369.74 24639 24642.2 26156.3 26149.8
7372.52 24646.1 24699.8 26145.9 26169.7
7375.31 24814.5 24673.6 26206.7 26097.8
7378.09 24560.4 24664.9 25940.8 26058.9
7380.88 24619.8 24462 26029.2 25836.9
7383.66 24206 24313.1 25540.6 25676.1
7386.45 24113.6 24098.2 25458.4 25456.6
7389.23 23975.1 23939.3 25370.9 25271.3
7392.01 23729.4 23957.9 24984.5 25279
7394.8 24169.2 24030.6 25481.7 25297.8
7397.58 24193.3 24101 25427.3 25390.3
7400.36 23940.6 24014.1 25262 25319.8
7403.15 23908.3 23840.5 25270.1 25168
7405.93 23672.7 23759.6 24971.9 25030
7408.71 23697.8 23737.3 24848.1 24959.5
7411.5 23841.4 23756.9 25058.4 24952.6
7414.28 23731.5 23665.9 24951.3 24864.6
7417.06 23424.8 23609.1 24584.1 24781.8
7419.84 23671.1 23488.4 24810 24604.1
7422.62 23369.2 23510.4 24418.2 24595.4
7425.41 23490.8 23505.6 24558.1 24558
7428.19 23656.8 23694.2 24697.7 24737.6
7430.97 23934.9 23732.3 24956.9 24792
7433.75 23605.3 23769.4 24721.3 24843.4
7436.53 23767.8 23568.7 24852 24644.2
7439.31 23333 23463.4 24359.4 24504.6
7442.09 23289.2 23320.8 24302.4 24309.4
7444.87 23340.3 23289.5 24266.4 24251.6
7447.65 23239.1 23211.8 24186 24136.7
7450.43 23056 23274.6 23957.7 24188.6
7453.21 23528.6 23395.4 24422 24294.4
7455.99 23601.5 23522.1 24503.5 24410.6
7458.77 23436.3 23396.4 24306.4 24299.9
7461.55 23151.6 23269.9 24089.9 24169.5
7464.33 23221.9 23189.5 24112.1 24070.4
7467.11 23195.1 23278.8 24009.2 24115.7
7469.88 23419.3 23304.5 24225.8 24105.4
7472.66 23298.9 23289.5 24081.3 24077.3
7475.44 23150.1 23283.1 23924.7 24074.8
7478.22 23400.3 23259.4 24218.3 24044.8
7481 23228 23232.8 23991.4 24008.6
7483.77 23070.1 23085.7 23816.1 23836.7
7486.55 22958.9 23000 23702.8 23754.6
7489.33 22971 22846.9 23745.1 23611.2
7492.1 22610.8 22577.8 23385.8 23349
7494.88 22151.7 22421.7 22916.1 23142.3
7497.66 22502.7 22328.5 23125.1 22974.2
7500.43 22331.2 22486.1 22881.5 23090.5
7503.21 22624.4 22502.4 23264.9 23094.9
7505.98 22551.5 22419.8 23138.3 23030.6
7508.76 22083.4 22339.7 22688.7 22924.2
7511.54 22384.3 22227 22945.7 22777.9
7514.31 22213.3 22317 22699.3 22841.8
7517.09 22353.5 22323.8 22880.3 22825.1
7519.86 22404.6 22414.9 22895.6 22922.8
7522.63 22486.5 22426.3 22992.6 22946
7525.41 22387.8 22407.3 22949.9 22935.1
7528.18 22347.6 22253.8 22862.7 22766.5
7530.96 22026 22256.8 22486.8 22739
7533.73 22396.7 22040.2 22867.3 22476.7
7536.5 21697.8 22029.8 22076 22441.7
7539.28 21994.9 21887 22381.9 22280.7
7542.05 21968.2 21982.6 22384.2 22388.1
7544.82 21984.7 21993.2 22398.1 22386.1
7547.6 22026.8 22076.2 22376 22470.1
7550.37 22217 22078.5 22636.2 22440.4
7553.14 21991.7 22033.3 22309 22359
7555.91 21891.2 21924 22131.8 22189
7558.69 21889.2 21847.1 22126.4 22081.9
7561.46 21761 21843.8 21987.5 22065.2
7564.23 21881.1 21849.9 22081.7 22088.9
7567 21907.7 21804.2 22197.7 22061.8
7569.77 21624 21731.2 21906 21995.1
7572.54 21661.9 21598.5 21881.6 21839.5
7575.31 21509.5 21587.7 21730.7 21802.3
7578.08 21591.7 21407.4 21794.5 21599.3
7580.85 21120.8 21220.6 21272.7 21378.2
7583.62 20949.4 20838.7 21067.3 20982.9
7586.39 20445.8 20233.2 20608.6 20397.2
7589.16 19304.3 18647 19515.7 18885.8
7591.93 16191 16115.1 16532.9 16406.7
7594.7 12850.1 12986.8 13171.4 13291.4
7597.47 9919.17 10209 10169.9 10438.8
7600.24 7857.67 8239.54 7975.2 8375.62
7603.01 6941.77 7264.53 6981.8 7294.29
7605.78 6994.13 7279.63 6925.88 7233.27
7608.55 7902.97 8234.44 7792.12 8099.7
7611.31 9806.21 10154.4 9581.1 9950.3
7614.08 12754.1 12266.7 12477.7 12055.8
7616.85 14239.8 13796.8 14108.5 13646
7619.62 14396.4 13877.4 14351.7 13843.8
7622.38 12996.1 13190.5 13071.2 13205.7
7625.15 12179.1 12288.3 12194.1 12292.9
7627.92 11689.6 11866.5 11613.4 11805.4
7630.68 11730.8 11863.1 11608.7 11747
7633.45 12168.9 12108.1 12019.1 11961.6
7636.22 12424.7 12548.8 12257 12382.6
7638.98 13052.8 13030.5 12871.7 12846.5
7641.75 13614.1 13540.1 13410.8 13338.5
7644.51 13953.4 14074.4 13732.8 13866.5
7647.28 14655.8 14629.3 14455.8 14418.1
7650.04 15278.6 15214.4 15065.7 14986.1
7652.81 15709 15700.4 15436.8 15459.6
7655.57 16113.7 16113.5 15876.4 15840.2
7658.34 16517.6 16406.9 16207.4 16143.2
7661.1 16589.4 16743.4 16345.7 16445
7663.87 17123.3 17031.2 16781.8 16728.9
7666.63 17381 17481.5 17059.2 17123.4
7669.39 17940.2 17900.7 17529.4 17530.6
7672.16 18380.9 18271 18003.4 17868.9
7674.92 18491.7 18550.3 18074 18134.3
7677.68 18778.3 18691.7 18325.7 18247.6
7680.45 18805.1 18845.4 18343.2 18391.9
7683.21 18952.9 19000.6 18507 18537.2
7685.97 19243.7 19094.7 18761.4 18621
7688.73 19087.6 19183.1 18594.6 18697.1
7691.5 19217.9 19159 18735.4 18664.7
7694.26 19171.6 18693 18664.1 18646
7697.02 17689.5 18232.9 18538.6 18598.9
7699.78 17837.7 17760.7 18593.9 18562.6
7702.54 17755 17813.8 18555.2 18558.3
7705.3 17848.6 17729.6 18525.9 18474
7708.06 17585.1 17632.9 18341 18371
7710.82 17465 17510.3 18246.2 18303
7713.58 17480.9 17542.9 18321.7 18356.3
7716.34 17682.7 17594.8 18501 18381.2
7719.1 17620.7 17760 18321 18504.8
7721.86 17976.6 17751.2 18692.3 18485.7
7724.62 17656.4 17798.1 18443.8 18515.2
7727.38 17761.2 17699.5 18409.4 18374.3
7730.14 17681 17711.7 18269.6 18326.3
7732.9 17692.9 17743.2 18300 18332.5
7735.66 17855.7 17676.6 18428 18236.4
7738.42 17481.3 17546 17981.3 18057.9
7741.17 17301 17246.4 17764.4 17743
7743.93 16956.9 17049 17483.3 17552.8
7746.69 16889.1 16930.2 17410.6 17431.4
7749.45 16944.6 16960.4 17400.3 17464.1
7752.2 17047.5 17018.5 17581.2 17495.1
7754.96 17063.5 16996.4 17503.8 17483.1
7757.72 16878.2 16990.5 17364.3 17433.6
7760.47 17029.8 16960.7 17432.8 17392.1
7763.23 16974.1 16893.4 17379.3 17279.6
7765.99 16676.5 16744.3 17026.8 17100.9
7768.74 16582.4 16368 16896.6 16694.4
7771.5 15845.1 16143.7 16159.8 16420.2
7774.25 16003.6 15926.1 16204.1 16144.6
7777.01 15929.6 16050.4 16069.9 16189.2
7779.77 16218.1 16201.2 16293.5 16290.1
7782.52 16455.8 16412.1 16506.8 16468
7785.27 16562.3 16542.1 16603.5 16612.1
7788.03 16608.3 16691.5 16725.8 16780.7
7790.78 16904 16715.6 17012.7 16819
7793.54 16634.5 16752.9 16718.5 16813.8
7796.29 16720.2 16628.9 16710.3 16690.2
7799.04 16532.1 16688.8 16641.9 16691.9
7801.8 16814.2 16672.3 16723.5 16672.3
7804.55 16670.7 16660.4 16651.5 16591.4
7807.3 16496.3 16538.1 16399.2 16458.1
7810.06 16447.1 16402.8 16323.7 16306.1
7812.81 16264.9 16497.8 16195.4 16383.7
7815.56 16781.4 16556.1 16631.9 16428.8
7818.31 16621.9 16683.1 16459.2 16511.1
7821.07 16645.9 16594.9 16442.1 16451.8
7823.82 16517 16556.9 16454 16415.1
7826.57 16507.7 16439.6 16349.4 16305
7829.32 16294.1 16274.8 16111.8 16086.5
7832.07 16022.6 16191.8 15798.4 15974.9
7834.82 16258.8 16099.6 16014.5 15850.2
7837.57 16017.5 16216.9 15737.7 15894.1
7840.32 16374.6 16187.6 15930.1 15838
7843.07 16170.8 16269.8 15846.3 15848
7845.82 16264.2 16178.8 15767.6 15760.9
7848.57 16101.5 16095.8 15668.9 15665.1
7851.32 15921.8 15996.4 15558.9 15619.1
7854.07 15965.9 15958.3 15629.4 15604.6
7856.82 15987.1 15843 15625.5 15491.8
7859.57 15575.9 15746.2 15220.5 15345.9
7862.32 15675.5 15578 15191.7 15115.3
7865.07 15482.5 15595.6 14933.7 15070.3
7867.81 15628.9 15679.3 15085.4 15171.9
7870.56 15926.5 15752.6 15496.6 15230.6
7873.31 15702.4 15783.9 15109.6 15251.5
7876.06 15722.9 15547.3 15148.3 15004.9
7878.8 15216.7 15514.6 14757 14945.6
7881.55 15604.1 15508.8 14931.5 14919.8
7884.3 15705.6 15559.6 15070.8 14915.3
7887.04 15369 15561.7 14743.6 14904
7889.79 15610.6 15328.7 14897.5 14677.8
7892.54 15006.4 15218.7 14392.3 14524.1
7895.28 15039 15042.1 14282.5 14327.6
7898.03 15080.9 15137.5 14307.8 14345.6
7900.77 15292.6 15156.9 14446.5 14309.3
7903.52 15097.2 15200.5 14173.7 14292.1
7906.26 15211.6 15150.3 14256 14225.6
7909.01 15142.1 15067 14247 14187.5
7911.75 14847.3 15013.1 14059.3 14197.6
7914.5 15049.9 14892.4 14286.5 14159.9
7917.24 14780 14860.5 14133.8 14113.4
7919.99 14751.7 14664.8 13919.8 13881.2
7922.73 14462.5 14533 13590 13688.2
7925.47 14384.9 14425.3 13554.7 13584.2
7928.22 14428.5 14310.7 13607.8 13483.1
7930.96 14118.6 14164.5 13286.9 13305.2
7933.7 13946.5 14009.4 13021 13118.1
7936.44 13963.1 14008.7 13046.4 13044.5
7939.19 14116.7 14042 13066.3 13051.9
7941.93 14046.3 14058.2 13043.1 13029
7944.67 14011.7 14110.3 12977.6 13063.2
7947.41 14272.9 14096 13168.9 13019
7950.15 14003.4 14238.5 12910.6 13141.5
7952.89 14439.1 14365.8 13345 13236.2
7955.64 14654.9 14464 13453 13299.2
7958.38 14297.9 14416.9 13099.7 13244.9
7961.12 14297.9 14230.8 13182.1 13104.9
7963.86 14096.5 14213.7 13032.8 13118.2
7966.6 14246.7 14255.3 13139.6 13135.5
7969.34 14422.8 14377.7 13234 13181.8
7972.08 14463.6 14338.6 13171.9 13093
7974.82 14129.4 14285.2 12873 13023.8
7977.55 14262.7 14180.9 13026.7 12916.3
7980.29 14150.6 14170.3 12849.4 12876.1
7983.03 14097.8 14122.3 12752.4 12782.5
7985.77 14118.6 14112.3 12745.6 12761.6
7988.51 14120.5 14125.9 12786.8 12790.6
7991.25 14138.5 14090.7 12839.3 12805.5
7993.98 14012.9 14080.8 12790.5 12804.7
7996.72 14091 14037.3 12784.3 12748.9
7999.46 14008 14039.6 12672 12684.2
8002.2 14019.9 14001.9 12596.2 12603.8
8004.93 13977.9 14014.9 12543.3 12566.1
8007.67 14047 14036.4 12558.7 12576.4
8010.41 14084.2 14072.8 12627.3 12570
8013.14 14087.2 14079 12523.9 12551.5
8015.88 14065.5 14008.6 12503.5 12444.8
8018.61 13873.1 13906.8 12306.9 12378.8
8021.35 13781.6 13758.2 12325.9 12281.4
8024.09 13619.9 13735.1 12211.4 12298
8026.82 13803.9 13688.2 12356.6 12225.6
8029.55 13640.8 13708.4 12108.8 12205.4
8032.29 13680.5 13647.8 12150.8 12118
8035.02 13622 13705.8 12094.4 12128.2
8037.76 13814.9 13641 12139.5 12049.5
8040.49 13486 13566.3 11914.6 11938.5
8043.23 13397.9 13464.9 11761.3 11849.9
8045.96 13510.7 13444.8 11873.6 11785.8
8048.69 13425.6 13457.1 11722.3 11783
8051.42 13434.9 13445.2 11753 11758.8
8054.16 13475 13423.4 11801 11775.9
8056.89 13360.4 13338.6 11773.7 11708.3
8059.62 13180.4 13257.8 11550.4 11633
8062.35 13232.6 13275 11575.1 11610.8
8065.09 13412.1 13274.8 11706.9 11611.1
8067.82 13179.7 13292.4 11551.2 11604.7
8070.55 13285.4 13233.7 11555.9 11559.5
8073.28 13236 13227.6 11571.5 11513.2
8076.01 13161.3 13198.4 11412.3 11462
8078.74 13198.1 13090.3 11402.3 11323
8081.47 12911.6 13016.9 11154.4 11232
8084.2 12941 12838.3 11139.3 11060.4
8086.93 12662.5 12790.4 10887.5 10990
8089.66 12767.7 12785.3 10943.2 10984.3
8092.39 12925.9 12867.7 11122 11053.7
8095.12 12909.6 12856 11095.9 11036.3
8097.85 12732.4 12794.5 10890.9 10979.1
8100.58 12741.6 12759.6 10950.6 10953.9
8103.31 12804.9 12691.9 11020.1 10901.4
8106.03 12529.3 12668.1 10733.5 10880.6
8108.76 12670 12609.7 10888.3 10755.3
8111.49 12629.7 12687.9 10644 10768.2
8114.22 12763.9 12679.2 10772.4 10734.4
8116.95 12644 12613.9 10786.9 10696
8119.67 12433.7 12479.1 10528.6 10593.3
8122.4 12359.7 12377.6 10464.4 10452.3
8125.13 12339.5 12352.5 10364 10429.2
8127.85 12358.2 12244.2 10459.1 10323.1
8130.58 12034.8 12153.6 10146.1 10256.6
8133.3 12067.9 12055.6 10164.7 10120.6
8136.03 12064.3 12138.5 10051 10167.9
8138.76 12283.4 12072.1 10288 10098.4
8141.48 11868.7 11969.2 9956.16 10033.5
8144.21 11755.5 11762.6 9856.22 9868.01
8146.93 11663.7 11679.5 9791.63 9805.46
8149.66 11619.4 11653.7 9768.52 9777.89
8152.38 11677.9 11638 9773.5 9728.6
8155.1 11616.7 11647.7 9643.78 9704.07
8157.83 11648.6 11547.3 9694.93 9592.77
8160.55 11376.7 11438.5 9439.6 9502.18
8163.27 11290.1 11296.9 9372.01 9363.18
8166 11223.8 11296.5 9277.92 9356.72
8168.72 11375.4 11345.6 9420.24 9404.63
8171.44 11437.7 11406.5 9515.73 9444.37
8174.17 11406.4 11374.4 9397.15 9393.73
8176.89 11279 11262.5 9268.31 9284.31
8179.61 11102.2 11146.3 9187.47 9174.07
8182.33 11057.8 11040.9 9066.42 9096.14
8185.05 10962.7 11035.4 9034.53 9076.34
8187.77 11085.7 10964.1 9128.07 9017.44
8190.49 10843.8 10872.3 8889.72 8921.49
8193.21 10687.4 10732.4 8746.69 8772.84
8195.94 10666.2 10660.4 8682.13 8710.42
8198.66 10627.7 10670.9 8702.45 8710.77
8201.38 10718.7 10801.8 8747.73 8801.25
8204.1 11059 10904.8 8953.56 8885.44
8206.81 10936.7 11093.9 8955.04 9013.55
8209.53 11285.9 11087.7 9132.04 9040.08
8212.25 11040.5 11166.9 9033.15 9072.69
8214.97 11174.2 11090.2 9052.87 9005.92
8217.69 11056 11005.1 8931.74 8896.83
8220.41 10785 10870.6 8705.88 8790.53
8223.13 10770.7 10718 8733.97 8675.81
8225.84 10598.1 10615.9 8587.56 8575.9
8228.56 10478.8 10553.9 8406.17 8501.11
8231.28 10584.8 10622.1 8509.6 8523.18
8234 10802.6 10781.8 8653.77 8641.38
8236.71 10958 10920.2 8760.77 8736.23
8239.43 11000.1 10978.6 8794.16 8783.71
8242.15 10977.8 11006.8 8796.19 8804.9
8244.86 11042.6 11046.5 8824.36 8814.3
8247.58 11119.1 11064.3 8822.35 8808.97
8250.29 11031.2 11004.1 8780.22 8751.78
8253.01 10862.1 10913.5 8652.78 8700.05
8255.72 10847.3 10860 8667.15 8648.68
8258.44 10870.7 10873.9 8626.13 8644.15
8261.15 10903.7 10941.2 8639.18 8656.77
8263.87 11049.3 11066.1 8704.99 8744.05
8266.58 11245.1 11114.7 8887.98 8784.92
8269.3 11049.5 11100.8 8761.8 8770.82
8272.01 11007.9 10970.4 8662.7 8647.88
8274.72 10853.9 10889.5 8519.14 8551.99
8277.44 10806.8 10885.5 8474.13 8536.86
8280.15 10995.8 10862.6 8617.31 8522.8
8282.86 10785.1 10883.9 8476.94 8526.64
8285.57 10870.9 10773.8 8485.66 8410.09
8288.29 10665.6 10732 8267.66 8357.92
8291 10659.6 10704.6 8320.45 8312.51
8293.71 10788.7 10794 8349.42 8407.48
8296.42 10933.7 10903.3 8552.59 8491.21
8299.13 10987.7 10929.1 8571.62 8541.55
8301.84 10865.9 10880.2 8500.45 8485.46
8304.56 10786.9 10819.1 8384.3 8432.13
8307.27 10804.4 10742.9 8411.63 8354.46
8309.98 10637.3 10735.5 8267.45 8346.92
8312.69 10764.9 10714.5 8361.67 8311.26
8315.4 10741.4 10768.7 8304.66 8335.93
8318.11 10799.7 10758.6 8341.47 8308.91
8320.81 10734.8 10736 8280.61 8275.18
8323.52 10673.5 10684.1 8203.46 8232.46
8326.23 10643.9 10606.5 8213.32 8165.69
8328.94 10502.2 10466.7 8080.3 8043.37
8331.65 10253.8 10372.7 7836.47 7952.84
8334.36 10361.9 10315.5 7941.75 7863.34
8337.06 10330.7 10393.5 7811.81 7891.62
8339.77 10487.9 10493.7 7921.31 7951.51
8342.48 10662.6 10629.8 8121.42 8095.63
8345.19 10739 10697.7 8244.15 8196.6
8347.89 10691.4 10672.9 8224.22 8203.86
8350.6 10588.3 10606.2 8143.21 8125.08
8353.31 10538.9 10560 8007.81 8062.23
8356.01 10552.8 10609.4 8035.66 8054.09
8358.72 10736.6 10642.2 8118.79 8068.76
8361.42 10637.3 10634.9 8051.82 8049.89
8364.13 10530.6 10564.7 7979.07 7996.04
8366.83 10526.2 10567.5 7957.25 7992.94
8369.54 10645.6 10589.6 8042.52 8002.46
8372.24 10597.1 10591.3 8007.61 7996.4
8374.95 10531.1 10587.2 7939.08 7967.68
8377.65 10633.3 10599.1 7956.33 7954.5
8380.36 10633 10620.8 7968.09 7963.28
8383.06 10596.2 10534.1 7965.41 7906.68
8385.76 10373.2 10442.3 7786.53 7843.51
8388.47 10357.4 10346 7778.6 7756.28
8391.17 10307.4 10410.3 7703.7 7748.76
8393.87 10566 10486.8 7763.98 7765.19
8396.57 10587 10568.6 7827.88 7796.1
8399.27 10552.7 10518.7 7796.44 7805.52
8401.98 10416.5 10447.7 7792.24 7768.43
8404.68 10374 10435.9 7716.59 7770.84
8407.38 10517.4 10479.5 7803.69 7768.64
8410.08 10547.2 10519.4 7785.64 7768.66
8412.78 10493.7 10509.3 7716.66 7757.83
8415.48 10486.9 10520.6 7771.2 7759.82
8418.18 10581.4 10574.9 7791.61 7804.01
8420.88 10656.6 10577.7 7849.21 7777.43
8423.58 10495 10510.7 7691.48 7717.79
8426.28 10380.4 10460.2 7612.69 7684.25
8428.98 10505.2 10483.3 7748.57 7702.45
8431.68 10564.3 10503.4 7746.1 7732.98
8434.38 10440.9 10448.7 7704.27 7683.6
8437.08 10341.1 10386.8 7600.43 7619.72
8439.78 10378.5 10275 7554.45 7509.17
8442.47 10105.3 10202.5 7372.63 7446.98
8445.17 10123.7 10074.9 7413.86 7352.92
8447.87 9995.69 10183.7 7272.27 7412.57
8450.57 10431.8 10237.4 7551.59 7443.92
8453.26 10284.8 10408.2 7507.91 7536.33
8455.96 10508.1 10404.7 7549.48 7543.07
8458.66 10421.1 10341.9 7571.8 7465.75
8461.35 10096.6 10304 7275.98 7436.73
8464.05 10394.4 10234.7 7462.43 7367.72
8466.74 10213.3 10223.1 7364.75 7344.89
8469.44 10061.8 10147 7207.49 7299.63
8472.13 10166.1 10103.5 7326.66 7255.68
8474.83 10082.6 10120.8 7232.88 7260.96
8477.52 10113.6 10201.7 7223.35 7289.87
8480.22 10408.8 10412.1 7413.38 7432.46
8482.91 10713.8 10557.7 7660.66 7539.8
8485.61 10550.4 10617.2 7545.35 7578.4
8488.3 10587.4 10431.9 7529.19 7444.19
8490.99 10157.8 10282.1 7258.03 7332.36
8493.69 10101.1 10058.5 7209.87 7179.11
8496.38 9916.7 9817.68 7069.44 6967.04
8499.07 9435.24 9607.32 6621.82 6761.54
8501.76 9470.03 9622.02 6593.36 6722.22
8504.46 9960.78 9760.08 6951.48 6788.03
8507.15 9849.42 9957.5 6819.25 6916.07
8509.84 10062.3 10005.6 6977.49 6943.88
8512.53 10105.1 10073.3 7034.89 6989.88
8515.22 10052.5 10057.5 6957.27 6978.48
8517.91 10014.8 10156.8 6943.27 7025.59
8520.6 10403.3 10067.1 7176.23 7163.07
8523.29 9783.12 9987.02 7369.71 7284.34
8525.98 9774.64 9683.86 7307.06 7268.12
8528.67 9493.82 9567.89 7127.59 7170.77
8531.36 9435.2 9419.86 7077.65 7069.37
8534.05 9330.56 9342.82 7002.88 7022.01
8536.74 9262.69 9148.45 6985.5 6874.55
8539.43 8852.09 8910.66 6635.27 6687.77
8542.12 8617.2 8639.45 6442.56 6443.96
8544.81 8449.06 8535.04 6254.05 6337.9
8547.49 8538.86 8663.62 6317.1 6398.47
8550.18 9002.94 8930.47 6624.25 6579.07
8552.87 9249.6 9172.1 6795.85 6752.09
8555.56 9263.76 9328.61 6836.16 6866.2
8558.24 9472.46 9404.27 6966.59 6921.09
8560.93 9476.58 9495.49 6960.51 6965.53
8563.62 9537.43 9586.2 6969.48 6983.28
8566.3 9744.59 9702.49 7019.85 7055.87
8568.99 9825.44 9728.51 7178.27 7091.99
8571.67 9615.51 9654.49 7077.84 7072.5
8574.36 9522.54 9552.55 6961.39 7000.68
8577.05 9519.61 9539.81 6962.8 6958.75
8579.73 9577.27 9587.96 6952.04 6965.68
8582.41 9666.99 9610.25 6982.19 6937.85
8585.1 9586.48 9606.96 6879.32 6910.68
8587.78 9567.4 9512.46 6870.54 6840.99
8590.47 9383.5 9389.69 6773.12 6761.03
8593.15 9218.16 9204.46 6639.42 6641.66
8595.83 9011.71 9025.82 6512.44 6468.09
8598.52 8847.57 8889.94 6252.4 6347.06
8601.2 8810.54 8841.03 6276.35 6263.21
8603.88 8864.97 8987.89 6260.87 6355.01
8606.56 9288.16 9147.84 6527.81 6454.77
8609.25 9290.39 9305.85 6575.63 6567.48
8611.93 9339 9358.35 6599 6607.08
8614.61 9445.67 9433.76 6646.6 6627.37
8617.29 9516.62 9565.15 6636.5 6679.75
8619.97 9733.17 9624.04 6756.14 6712
8622.65 9622.33 9706.18 6743.37 6761.77
8625.33 9763.06 9694.48 6785.78 6768.73
8628.01 9698.06 9760.48 6777.05 6804.85
8630.69 9820.3 9775.09 6851.72 6800.85
8633.37 9806.89 9828.93 6773.78 6806.1
8636.05 9859.59 9865.32 6792.8 6768.85
8638.73 9929.47 9896.07 6739.97 6769.98
8641.41 9899.14 9889.21 6777.16 6725.24
8644.09 9839.03 9767.84 6658.59 6685.55
8646.77 9565.35 9587.53 6620.91 6566.62
8649.44 9358.23 9423.17 6420.37 6502
8652.12 9345.93 9381.48 6464.73 6421.87
8654.8 9440.29 9357.85 6380.51 6381.67
8657.48 9287.31 9181.85 6299.76 6226.23
8660.15 8817.94 8773.19 5998.41 5947.24
8662.83 8214.32 8343.85 5543.55 5634.39
8665.51 7999.29 8067.2 5361.22 5412.17
8668.18 7987.99 8102.47 5331.73 5420.64
8670.86 8320.11 8343.78 5568.96 5585.3
8673.53 8723.24 8646.51 5855.22 5792.9
8676.21 8896.16 8870.52 5954.54 5903.7
8678.88 8992.16 9019.68 5901.35 5970.76
8681.56 9170.73 9159.61 6056.4 6025.67
8684.23 9315.94 9278.3 6119.26 6133.22
8686.91 9348.23 9301.29 6224.01 6146.49
8689.58 9239.7 9384.53 6096.18 6181.47
8692.25 9565.66 9474.43 6224.21 6187.42
8694.93 9617.92 9565.33 6241.87 6232.69
8697.6 9512.4 9577.48 6231.99 6239.99
8700.27 9602.1 9586.31 6246.1 6240.66
8702.95 9644.42 9663.56 6243.89 6266.31
8705.62 9744.16 9706.94 6308.94 6281.41
8708.29 9732.24 9724.58 6291.39 6286.71
8710.96 9697.36 9650.27 6259.79 6239.52
8713.63 9521.22 9603.32 6167.4 6174.86
8716.31 9591.39 9687.15 6097.4 6180.2
8718.98 9948.84 9777.41 6275.8 6191.25
8721.65 9792.01 9930.72 6200.55 6290.17
8724.32 10051.3 9860.11 6394.16 6254.32
8726.99 9736.99 9749.21 6168.24 6221.18
8729.66 9459.32 9585.96 6101.13 6093.54
8732.33 9561.59 9489.58 6011.24 6021.48
8735 9447.83 9471.01 5952.08 5958.17
8737.67 9403.63 9337.2 5911.2 5850.14
8740.33 9160.16 9226.27 5687.13 5772.06
8743 9115.04 9020.23 5717.83 5618.33
8745.67 8785.49 8737.72 5450.04 5459.38
8748.34 8312.64 8408.86 5210.26 5243.66
8751.01 8128.45 8155.23 5070.69 5076.44
8753.67 8024.6 8122.81 4948.37 5033.87
8756.34 8215.39 8197.74 5082.55 5072.25
8759.01 8353.23 8467.47 5185.83 5253.27
8761.68 8833.78 8740.35 5491.44 5423.25
8764.34 9034.03 8959.47 5592.48 5556.17
8767.01 9010.6 9145.54 5584.59 5625.78
8769.67 9391.98 9247.91 5700.26 5649.48
8772.34 9341.13 9363.92 5663.59 5670.55
8775 9358.64 9413.76 5647.8 5676.04
8777.67 9541.52 9498.32 5716.71 5687.11
8780.33 9594.82 9609.6 5696.8 5698.58
8783 9692.46 9699.43 5682.24 5669.43
8785.66 9811.02 9754.16 5629.26 5664.95
8788.33 9759.01 9674.76 5683.34 5590.9
8790.99 9454.26 9573.58 5460.12 5565.09
8793.65 9507.46 9539.51 5551.81 5519.93
8796.32 9656.81 9571.02 5547.85 5537.62
8798.98 9548.79 9625.77 5513.21 5556.55
8801.64 9671.72 9656.61 5608.6 5574.1
8804.3 9749.33 9645.67 5600.49 5566.29
8806.97 9515.97 9627.62 5489.8 5548.18
8809.63 9617.55 9539.59 5554.26 5509.7
8812.29 9485.24 9529.71 5485.05 5498.3
8814.95 9486.36 9531.17 5455.58 5485.4
8817.61 9621.93 9601.95 5515.56 5498.6
8820.27 9697.58 9627.02 5524.65 5525.68
8822.93 9561.54 9653.78 5536.83 5574.79
8825.59 9702.23 9587.36 5662.89 5595.13
8828.25 9498.32 9591.41 5585.68 5652.22
8830.91 9573.7 9444.94 5708.09 5551.52
8833.57 9262.82 9358.85 5360.78 5439.09
8836.23 9240.03 9262.62 5248.39 5249.09
8838.89 9285.01 9260.42 5138.08 5112.04
8841.55 9256.21 9292.19 4949.63 5005.12
8844.21 9335.34 9253.86 4927.65 4912.74
8846.86 9170.02 9217.59 4860.93 4886.76
8849.52 9147.4 9098.04 4871.69 4853.62
8852.18 8976.69 8961.11 4828.26 4816.64
8854.84 8759.24 8670.9 4749.98 4696.48
8857.49 8276.77 8326.67 4511.19 4518.91
8860.15 7943.99 7954.8 4295.56 4329
8862.8 7643.63 7717.09 4180.26 4151.16
8865.46 7563.65 7604.46 3977.67 4067.25
8868.12 7606.1 7690.75 4043.82 4083.65
8870.77 7902.5 7929.7 4229.45 4210.08
8873.43 8280.52 8253.16 4356.98 4353.91
8876.08 8576.48 8495.25 4475.29 4460.51
8878.74 8628.75 8608.6 4549.25 4556.61
8881.39 8620.55 8680.18 4645.3 4664.93
8884.04 8791.22 8762.42 4800.25 4786.49
8886.7 8875.49 8816.29 4913.91 4826.72
8889.35 8782.17 8882.31 4765.98 4819.41
8892 8989.26 8955.82 4778.33 4751.5
8894.66 9096.03 9117.24 4710.18 4738.75
8897.31 9266.42 9170.59 4727.75 4716.35
8899.96 9149.32 9181.88 4711.12 4723.62
8902.61 9129.91 9103.94 4732 4720.45
8905.27 9032.59 9120.4 4718.22 4740.38
8907.92 9198.71 9160.59 4770.92 4730.07
8910.57 9250.47 9182.91 4701.08 4674.17
8913.22 9099.56 9154.12 4550.51 4629.31
8915.87 9112.34 9094.93 4636.35 4662.48
8918.52 9072.88 9045.67 4800.58 4735.18
8921.17 8951.78 8950.8 4768.61 4766.59
8923.82 8827.75 8884.49 4730.57 4687.16
8926.47 8873.94 8869.63 4562.3 4566.57
8929.12 8907.21 8915.66 4406.84 4417.99
8931.77 8965.84 8967.55 4284.81 4371.56
8934.42 9029.59 9058.47 4423.01 4382.12
8937.06 9179.97 9177.48 4438.52 4494.35
8939.71 9322.89 9180.83 4621.51 4514.31
8942.36 9039.62 9083.73 4482.91 4524.7
8945.01 8888.66 8954.17 4469.68 4457.84
8947.65 8934.23 8855.28 4420.93 4374.55
8950.3 8742.93 8848.61 4233.04 4307.79
8952.95 8868.66 8757.58 4269.38 4265.69
8955.59 8661.15 8762.41 4294.65 4317.9
8958.24 8757.43 8733.07 4389.68 4352.61
8960.89 8780.64 8708.27 4373.51 4332.29
8963.53 8586.74 8609.09 4233.7 4229.64
8966.18 8459.9 8500.19 4081.71 4113.03
8968.82 8453.92 8410.01 4023.67 4027.04
8971.47 8316.22 8355 3975.75 3957.48
8974.11 8294.86 8331.75 3873.01 3911.35
8976.75 8384.18 8382.26 3885.29 3900.25
8979.4 8467.75 8419.34 3942.45 3921.28
8982.04 8406.09 8416.21 3936.09 3940.3
8984.68 8374.78 8304.15 3942.36 3929.28
8987.33 8131.56 8104.96 3909.37 3850.71
8989.97 7808.55 7809.2 3700.41 3704.71
8992.61 7487.49 7600.38 3504.34 3583.19
8995.25 7505.11 7561.39 3544.83 3559.64
8997.9 7691.58 7580.12 3629.75 3600.63
9000.54 7543.67 7519.02 3627.31 3588.58
9003.18 7321.82 7402.54 3508.68 3532.39
9005.82 7342.12 7288.99 3461.18 3421.5
9008.46 7203.04 7194.74 3294.63 3328.07
9011.1 7039.07 6932.88 3228.4 3200.22
9013.74 6556.54 6598.99 3077.61 3045.65
9016.38 6201.36 6232.61 2830.94 2847.02
9019.02 5939.92 6104.17 2632.5 2734.57
9021.66 6171.22 6193.94 2740.27 2768.15
9024.3 6470.68 6549.78 2931.68 2914.93
9026.94 7007.45 6877.66 3072.85 3044
9029.57 7154.86 7195.27 3127.47 3172.47
9032.21 7423.49 7357.61 3317.1 3289.32
9034.85 7494.49 7520.4 3423.39 3407.72
9037.49 7643.22 7604.1 3482.66 3461.65
9040.12 7674.59 7716.91 3478.91 3495.42
9042.76 7832.93 7768.73 3524.69 3499.15
9045.4 7798.69 7874.17 3493.85 3536.96
9048.03 7990.88 7945.6 3592.33 3563.66
9050.67 8047.23 8059.49 3604.81 3616.43
9053.31 8140.36 8062.21 3652.16 3613.9
9055.94 7999.03 7966.09 3584.73 3553.27
9058.58 7758.87 7829.24 3422.91 3492.7
9061.21 7729.81 7650.17 3470.46 3400.89
9063.85 7461.83 7496.66 3309.29 3317.08
9066.48 7298.35 6862.1 3171.5 2999.36
9069.11 5826.11 5873.78 2517.31 2536.65
9071.75 4496.88 3441 1921.16 1479.49
