wavelength spectrum_sum 3smoothed_sum
3508.94 1702.94 1411.22
3511.84 2530.73 2376.38
3514.75 2895.46 2859.63
3517.65 3152.7 3065.88
3520.56 3149.49 3142.06
3523.47 3123.98 3160.13
3526.37 3206.92 3177.14
3529.28 3200.53 3260.1
3532.18 3372.86 3289.89
3535.09 3296.29 3372.07
3538 3447.07 3397.63
3540.9 3449.52 3499.75
3543.81 3602.65 3595.13
3546.71 3733.21 3721.19
3549.62 3827.72 3799.96
3552.53 3838.95 3828.54
3555.43 3818.95 3830.93
3558.34 3834.91 3829.34
3561.24 3834.16 3887.25
3564.15 3992.69 3855.84
3567.06 3740.68 3843.8
3569.96 3798.04 3742.87
3572.87 3689.89 3786.74
3575.78 3872.28 3772.48
3578.68 3755.27 3855.94
3581.59 3940.26 3869.07
3584.5 3911.69 3900.35
3587.4 3849.1 3994
3590.31 4221.23 4035.28
3593.22 4035.5 4103.25
3596.12 4053.02 4119.07
3599.03 4268.68 4200.15
3601.94 4278.76 4265.45
3604.84 4248.89 4264.74
3607.75 4266.58 4307.98
3610.66 4408.47 4372.86
3613.56 4443.52 4505.03
3616.47 4663.1 4603.74
3619.38 4704.58 4741.62
3622.28 4857.17 4889.49
3625.19 5106.7 4928.25
3628.1 4820.89 4892.45
3631 4749.76 4901.03
3633.91 5132.44 5084.54
3636.82 5371.41 5272.09
3639.72 5312.43 5283.88
3642.63 5167.82 5384.05
3645.54 5671.91 5440.09
3648.44 5480.53 5653.28
3651.35 5807.4 5689.05
3654.26 5779.21 5782.81
3657.17 5761.83 5742.79
3660.07 5687.32 5760.92
3662.98 5833.61 5841.28
3665.89 6002.92 6003.37
3668.79 6173.57 6043.45
3671.7 5953.86 5971.47
3674.61 5786.97 5940.73
3677.52 6081.35 5929.11
3680.42 5919.02 6054.51
3683.33 6163.17 6068.3
3686.24 6122.71 6246.88
3689.15 6454.76 6370.92
3692.05 6535.3 6473.57
3694.96 6430.64 6497.84
3697.87 6527.59 6451.91
3700.77 6397.5 6520.89
3703.68 6637.6 6619.72
3706.59 6824.07 6850.32
3709.5 7089.29 7129.81
3712.4 7476.08 7346.58
3715.31 7474.38 7355.42
3718.22 7115.8 7432.52
3721.13 7707.37 7481.22
3724.03 7620.48 7692.57
3726.94 7749.87 7693.26
3729.85 7709.42 7648.19
3732.76 7485.29 7823.36
3735.67 8275.39 8203.98
3738.57 8851.26 8582.78
3741.48 8621.68 8578.18
3744.39 8261.6 8358.09
3747.3 8191 8414.77
3750.2 8791.73 8777.09
3753.11 9348.55 9189.73
3756.02 9428.91 9634.39
3758.93 10125.7 9751.59
3761.83 9700.16 9726.33
3764.74 9353.13 9452.45
3767.65 9304.06 9512.3
3770.56 9879.7 10001.1
3773.47 10819.5 10772.8
3776.37 11619.1 11605
3779.28 12376.4 12062.8
3782.19 12192.8 12347.6
3785.1 12473.6 12285.7
3788 12190.7 12079
3790.91 11572.8 11604.3
3793.82 11049.5 11295.1
3796.73 11263 11452.9
3799.64 12046.1 12111.2
3802.54 13024.5 13015.4
3805.45 13975.4 13816.8
3808.36 14450.3 14535.1
3811.27 15179.4 15163
3814.18 15859.3 15611
3817.08 15794.3 15762.1
3819.99 15632.7 15511.4
3822.9 15107.3 14988.8
3825.81 14226.2 13982.7
3828.72 12614.6 12977.9
3831.62 12092.9 12368.4
3834.53 12397.7 12510.2
3837.44 13040 13098.7
3840.35 13858.5 14044.3
3843.26 15234.5 15067.8
3846.17 16110.3 16112.5
3849.07 16992.8 16991.1
3851.98 17870.2 17953.8
3854.89 18998.3 18865.7
3857.8 19728.5 19574.4
3860.71 19996.3 19923.4
3863.61 20045.4 20121.9
3866.52 20323.8 20113.1
3869.43 19970.1 19966.7
3872.34 19606.3 19499.4
3875.25 18921.8 18719.1
3878.15 17629.2 17550.5
3881.06 16100.5 16191.5
3883.97 14844.6 15060.6
3886.88 14236.6 14651.1
3889.79 14872 14827.5
3892.7 15373.9 15605.9
3895.6 16571.9 16476.5
3898.51 17483.6 17393.8
3901.42 18125.9 18270.4
3904.33 19201.8 19251.9
3907.24 20427.9 20327.2
3910.14 21351.9 21296.1
3913.05 22108.3 22056.2
3915.96 22708.2 22804.6
3918.87 23597.2 23519.3
3921.78 24252.4 23983.4
3924.69 24100.6 23661.9
3927.59 22632.6 22926.2
3930.5 22045.3 22512.2
3933.41 22858.6 22797.4
3936.32 23488.2 23381.2
3939.23 23796.8 23079.9
3942.14 21954.7 22501
3945.04 21751.3 21699.3
3947.95 21391.7 21457
3950.86 21228 21223.2
3953.77 21049.8 21114.3
3956.68 21065 20548.4
3959.59 19530.2 19307.6
3962.49 17327.6 17480.6
3965.4 15584 16041.2
3968.31 15212.1 15594.8
3971.22 15988.5 16132.4
3974.13 17196.7 17233.6
3977.04 18515.6 18500.7
3979.94 19789.8 19734
3982.85 20896.5 20911.2
3985.76 22047.3 21824.3
3988.67 22529 22688.5
3991.58 23489.2 23521
3994.48 24544.7 24531.8
3997.39 25561.5 25322
4000.3 25859.9 26076.3
4003.21 26807.7 26602.7
4006.12 27140.5 27405.5
4009.03 28268.3 28097.1
4011.93 28882.5 28898.1
4014.84 29543.4 29404.2
4017.75 29786.7 29738.3
4020.66 29885 29976.7
4023.57 30258.5 30149.2
4026.48 30304.1 30224.5
4029.38 30111 30410.7
4032.29 30816.9 30565.4
4035.2 30768.2 30811.8
4038.11 30850.3 30571.7
4041.02 30096.7 30377
4043.93 30184.1 30327.2
4046.83 30700.9 30651.4
4049.74 31069.2 30777.6
4052.65 30562.6 30869.1
4055.56 30975.5 30816.1
4058.47 30910.3 30802.5
4061.37 30521.8 30706.6
4064.28 30687.6 30470.3
4067.19 30201.6 30049.4
4070.1 29258.9 29170.4
4073.01 28050.7 28386
4075.92 27848.5 27952.8
4078.82 27959.4 27878.8
4081.73 27828.5 27858
4084.64 27786.3 27718.3
4087.55 27540.2 27228.3
4090.46 26358.3 26240.5
4093.36 24823 24540.7
4096.27 22440.6 22749.8
4099.18 20985.7 21586.2
4102.09 21332.2 21568.4
4105 22387.3 22517.5
4107.9 23833 23830.5
4110.81 25271.1 25014.1
4113.72 25938.1 25890
4116.63 26460.8 26643.2
4119.54 27530.7 27338
4122.44 28022.3 28186.5
4125.35 29006.5 28843.7
4128.26 29502.2 29702.4
4131.17 30598.4 30684.6
4134.08 31953.2 31780.5
4136.98 32789.8 32775.4
4139.89 33583.3 33328.4
4142.8 33612.1 33747
4145.71 34045.5 33898.3
4148.62 34037.4 34097.1
4151.52 34208.4 34461.2
4154.43 35137.8 34997.8
4157.34 35647.2 35495.7
4160.25 35702.2 35839.3
4163.16 36168.6 36082.3
4166.06 36376.2 36293.9
4168.97 36337 36204
4171.88 35898.9 35944.4
4174.79 35597.3 35856.3
4177.69 36072.7 36095.2
4180.6 36615.5 36411
4183.51 36544.8 36646
4186.42 36777.7 36861.6
4189.33 37262.2 36818.4
4192.23 36415.2 36721.6
4195.14 36487.3 36520.8
4198.05 36660 36674.8
4200.96 36877 37077.6
4203.86 37695.7 37629.3
4206.77 38315.1 38303.8
4209.68 38900.7 38696.7
4212.59 38874.4 38983.5
4215.49 39175.4 39172
4218.4 39466.3 39308.9
4221.31 39284.9 39167.2
4224.22 38750.4 39229.2
4227.12 39652.2 39426.3
4230.03 39876.2 39723.1
4232.94 39641 39614
4235.85 39325 39555.9
4238.75 39701.7 39789.3
4241.66 40341.3 40090.3
4244.57 40227.8 40302.9
4247.48 40339.6 40481.1
4250.38 40875.8 40901.4
4253.29 41488.8 41410
4256.2 41865.4 41670
4259.11 41655.8 41947.8
4262.01 42322.3 42281.8
4264.92 42867.3 42372.3
4267.83 41927.2 42418.9
4270.73 42462.2 42359.7
4273.64 42689.6 42725.6
4276.55 43024.9 43064.3
4279.46 43478.3 43188.1
4282.36 43061.1 43185.8
4285.27 43018 42878.6
4288.18 42556.8 42812
4291.08 42861.3 42468.9
4293.99 41988.6 42037.1
4296.9 41261.5 41161.9
4299.81 40235.7 40647.4
4302.71 40445 40526.7
4305.62 40899.4 40681.8
4308.53 40701 40894.8
4311.43 41084 41196.3
4314.34 41803.7 41516.2
4317.25 41660.9 41493
4320.15 41014.4 40921.7
4323.06 40089.8 39961.5
4325.97 38780.4 38630.9
4328.87 37022.4 36811.9
4331.78 34633 34202.4
4334.69 30951.8 31601.9
4337.59 29221 29742.5
4340.5 29054.6 29591.6
4343.41 30499.2 30478
4346.31 31880.2 32091.5
4349.22 33895.2 33865.8
4352.13 35822.1 35618
4355.03 37136.7 37185
4357.94 38596 38666.8
4360.85 40267.5 40102.4
4363.75 41443.6 41440.4
4366.66 42610.1 42535.2
4369.57 43551.7 43735.7
4372.47 45045.2 44586.1
4375.38 45161.3 45342.5
4378.29 45821 45562.6
4381.19 45705.5 45777.6
4384.1 45806.2 45812.9
4387 45927.2 46015.5
4389.91 46313 46222.1
4392.82 46426.2 46317.7
4395.72 46213.8 46405
4398.63 46575.1 46774.5
4401.53 47534.7 47349.6
4404.44 47939.1 47893.6
4407.35 48206.9 48067.9
4410.25 48057.6 47948.7
4413.16 47581.6 47905.2
4416.06 48076.2 47857.7
4418.97 47915.4 48407.9
4421.88 49232.1 48558.6
4424.78 48528.4 48791.5
4427.69 48614.1 48746.8
4430.59 49098 48930.3
4433.5 49078.8 49279.7
4436.41 49662.3 49257
4439.31 49029.7 49077.4
4442.22 48540.1 48705.7
4445.12 48547.3 48523.2
4448.03 48482.2 48425
4450.93 48245.4 48226.6
4453.84 47952.1 48058.4
4456.74 47977.8 47821.7
4459.65 47535.2 47805.3
4462.56 47903 47565.7
4465.46 47258.9 47512.8
4468.37 47376.6 47840.1
4471.27 48884.9 48549.8
4474.18 49387.8 49201.3
4477.08 49331.2 49238.3
4479.99 48995.9 49283.1
4482.89 49522.2 49492.3
4485.8 49958.7 49838.1
4488.7 50033.2 50251.3
4491.61 50761.9 50616.3
4494.51 51053.7 51205
4497.42 51799.4 51735.8
4500.32 52354.4 52232.2
4503.23 52542.9 52660.6
4506.13 53084.5 52914.5
4509.04 53116.2 53082.8
4511.94 53047.6 52866.8
4514.85 52436.7 52430.2
4517.75 51806.2 51769.8
4520.66 51066.5 50978.7
4523.56 50063.5 50476.2
4526.47 50298.8 50471.1
4529.37 51051.1 51000
4532.28 51650.2 51500.3
4535.18 51799.7 51827
4538.08 52031.3 51992.7
4540.99 52147.3 52061.2
4543.89 52005.1 51883.5
4546.8 51498 51368.3
4549.7 50601.9 50667.9
4552.61 49903.9 50203.8
4555.51 50105.8 50380.3
4558.42 51131.3 51052.1
4561.32 51919.2 51969.7
4564.22 52858.4 52542.5
4567.13 52849.9 53068.5
4570.03 53497.2 53375.3
4572.94 53778.8 53518
4575.84 53278 53552.5
4578.74 53600.5 53463.2
4581.65 53511.1 53698.8
4584.55 53984.9 53840.2
4587.46 54024.5 54025.5
4590.36 54066.9 54016.4
4593.26 53957.8 54309.7
4596.17 54904.4 54696.9
4599.07 55228.6 54961.2
4601.97 54750.5 54968.8
4604.88 54927.3 55055.8
4607.78 55489.5 55394.3
4610.68 55766.2 55709.7
4613.59 55873.4 55713.3
4616.49 55500.2 55910.7
4619.39 56358.3 56142.2
4622.3 56568.1 56452.9
4625.2 56432.3 56564.5
4628.1 56693.1 56596.3
4631.01 56663.3 56545.8
4633.91 56281 56516.2
4636.81 56604.5 56520.7
4639.72 56676.5 56729.9
4642.62 56908.9 56561.5
4645.52 56099 56491
4648.43 56465.2 56385.4
4651.33 56592 56735.9
4654.23 57150.5 56978.5
4657.13 57193 57221.3
4660.04 57320.5 56848.3
4662.94 56031.5 56239.8
4665.84 55367.5 55802.7
4668.75 56009.2 55937.8
4671.65 56436.6 56435.7
4674.55 56861.4 56865.5
4677.45 57298.5 56943.8
4680.36 56671.6 57070.8
4683.26 57242.4 57115.5
4686.16 57432.4 57406.4
4689.06 57544.4 57595.2
4691.96 57808.8 57709.5
4694.87 57775.3 57732.2
4697.77 57612.5 57673.8
4700.67 57633.7 57253.8
4703.57 56515.1 57228.2
4706.47 57535.8 56997
4709.38 56940.2 57201.1
4712.28 57127.4 57183.2
4715.18 57482 57494.3
4718.08 57873.5 57817.4
4720.98 58096.8 58023
4723.89 58098.7 57844.4
4726.79 57337.7 57677.8
4729.69 57596.9 57533.8
4732.59 57667 57542.4
4735.49 57363.5 57489.5
4738.39 57438.2 57527.1
4741.29 57779.7 57700.1
4744.2 57882.4 57878.8
4747.1 57974.4 57959.3
4750 58021.1 57967.5
4752.9 57906.9 57850.7
4755.8 57624 57823.7
4758.7 57940.2 57766.8
4761.6 57736.2 57962.3
4764.5 58210.4 58126.2
4767.4 58432 58405.7
4770.31 58574.8 58602.4
4773.21 58800.4 58549.9
4776.11 58274.6 58561.6
4779.01 58609.8 58437.8
4781.91 58428.8 58347.7
4784.81 58004.4 58196
4787.71 58154.8 58274.4
4790.61 58663.9 58393.1
4793.51 58360.6 58534.3
4796.41 58578.4 58415.9
4799.31 58308.7 58376.6
4802.21 58242.8 58115.2
4805.11 57794.1 57793.5
4808.01 57343.8 57502.6
4810.91 57370.1 57373.2
4813.81 57405.7 57296.1
4816.71 57112.6 56943
4819.61 56310.6 56312.9
4822.51 55515.3 55795.1
4825.41 55559.3 55622.2
4828.31 55791.9 55464.9
4831.21 55043.3 55180.2
4834.11 54705.4 54567.4
4837.01 53953.4 54025.2
4839.91 53416.8 53059.8
4842.81 51809.2 51652.3
4845.71 49730.9 49745.1
4848.61 47695.2 47353.7
4851.51 44635.2 44410.3
4854.41 40900.5 40852.6
4857.31 37022.1 37960
4860.2 35957.3 36375
4863.1 36145.5 36678.7
4866 37933.2 38003.6
4868.9 39932 39962.8
4871.8 42023.3 41880.3
4874.7 43685.6 43843.2
4877.6 45820.7 45429.3
4880.5 46781.7 46868.3
4883.4 48002.6 48032.1
4886.29 49312 49270.8
4889.19 50497.8 50674.5
4892.09 52213.7 51922.3
4894.99 53055.4 53052.6
4897.89 53888.7 53666.2
4900.79 54054.5 54421.5
4903.68 55321.3 54939.4
4906.58 55442.4 55406.7
4909.48 55456.5 55647.5
4912.38 56043.5 55514.1
4915.28 55042.5 54982.7
4918.17 53862.1 54450.6
4921.07 54447.4 54381.8
4923.97 54836.1 55044.9
4926.87 55851.2 55485.5
4929.77 55769.2 55761.8
4932.66 55665 55675.8
4935.56 55593.4 55954
4938.46 56603.6 56459.5
4941.36 57181.4 57074.9
4944.25 57439.6 57612.8
4947.15 58217.4 58130.2
4950.05 58733.6 58300.7
4952.94 57951.1 58306.8
4955.84 58235.6 58294.7
4958.74 58697.3 58635.4
4961.64 58973.4 58925.9
4964.53 59106.9 59048.2
4967.43 59064.2 59224
4970.33 59500.9 59448.9
4973.22 59781.4 59441.2
4976.12 59041.1 58922.5
4979.02 57945.1 58006.1
4981.91 57032 57492.9
4984.81 57501.6 57484.2
4987.71 57919.1 57945
4990.6 58414.1 58250.6
4993.5 58418.6 58335.1
4996.39 58172.5 58195.8
4999.29 57996.2 57892.7
5002.19 57509.4 57643
5005.08 57423.2 57673.4
5007.98 58087.4 57734.8
5010.87 57693.7 57824.9
5013.77 57693.7 57743.7
5016.67 57843.8 57882.2
5019.56 58109 58315.1
5022.46 58992.4 58676.6
5025.35 58928.3 59090.7
5028.25 59351.2 59215.1
5031.14 59365.6 59336.3
5034.04 59292 59145.3
5036.93 58778.2 59022.3
5039.83 58996.6 59059.6
5042.72 59404.2 59357.8
5045.62 59672.5 59581.1
5048.51 59666.5 59710.8
5051.41 59793.3 60104.3
5054.3 60852.9 60616.9
5057.2 61204.4 61170.6
5060.09 61454.6 61167.2
5062.99 60842.5 61023.3
5065.88 60772.7 60577.7
5068.78 60118 60259.6
5071.67 59888 59664.5
5074.57 58987.5 59184.3
5077.46 58677.2 58769.1
5080.35 58642.7 58780.9
5083.25 59022.9 59125.7
5086.14 59711.5 59541.5
5089.04 59890.1 59789.7
5091.93 59767.3 59752.3
5094.82 59599.4 59525.6
5097.72 59210 59453.3
5100.61 59550.6 59537
5103.5 59850.4 59845.5
5106.4 60135.4 60128.6
5109.29 60400 60165.3
5112.18 59960.4 60149.7
5115.08 60088.7 60041.7
5117.97 60076 59828.2
5120.86 59319.8 59188.6
5123.76 58169.9 58661.4
5126.65 58494.6 58397.3
5129.54 58527.3 58516.4
5132.44 58527.3 58549
5135.33 58592.4 58575.7
5138.22 58607.6 58680.4
5141.11 58841.3 58860.1
5144.01 59131.4 59097.5
5146.9 59319.9 59435.3
5149.79 59854.7 59513.2
5152.68 59365.1 59633
5155.58 59679.1 59510.4
5158.47 59486.8 59384.7
5161.36 58988.2 58808.8
5164.25 57951.5 58022.4
5167.14 57127.4 57315.5
5170.04 56867.5 57395.1
5172.93 58190.3 57891.4
5175.82 58616.5 58405.9
5178.71 58410.8 58303.7
5181.6 57883.7 57878.8
5184.49 57341.9 57358.3
5187.38 56849.2 57028.2
5190.28 56893.7 56798.6
5193.17 56652.8 54677.8
5196.06 50486.8 52634.9
5198.95 50765.2 50563
5201.84 50436.9 50639
5204.73 50714.9 50872.7
5207.62 51466.2 51427.3
5210.51 52100.9 51996.2
5213.4 52421.5 52444.4
5216.29 52810.9 52754
5219.18 53029.8 52792.4
5222.08 52536.6 52470.9
5224.97 51846.2 52010.9
5227.86 51649.9 51586.1
5230.75 51262.2 51646.1
5233.64 52026.2 51851.8
5236.53 52267 52471
5239.42 53119.7 53071.7
5242.31 53828.4 53441.3
5245.2 53375.9 53477.8
5248.09 53229.2 53294.6
5250.97 53278.8 53202.9
5253.86 53100.7 53035.3
5256.75 52726.3 52856.8
5259.64 52743.5 52167.4
5262.53 51032.5 51467.9
5265.42 50627.8 50601.3
5268.31 50143.5 50129.8
5271.2 49618.1 50209
5274.09 50865.4 50436.9
5276.98 50827.3 50974.2
5279.87 51229.8 51324.9
5282.75 51917.4 51900.4
5285.64 52553.9 52376.2
5288.53 52657.2 52681.5
5291.42 52833.4 52674.8
5294.31 52533.8 52754.1
5297.2 52895.2 52863.4
5300.08 53161 53107.3
5302.97 53265.7 53405.5
5305.86 53789.8 53537.4
5308.75 53556.6 53489.3
5311.64 53121.4 53155.6
5314.52 52788.8 52866.5
5317.41 52689.4 52738.3
5320.3 52736.8 52405
5323.19 51788.8 52103.7
5326.07 51785.7 51722.5
5328.96 51592.9 51829.3
5331.85 52109.3 51980.9
5334.74 52240.4 52126.4
5337.62 52029.6 52178.8
5340.51 52266.4 52406.5
5343.4 52923.4 52872.3
5346.28 53427.1 53332.8
5349.17 53647.9 53662.1
5352.06 53911.4 53898.3
5354.94 54135.7 54041.8
5357.83 54078.3 53814.5
5360.72 53229.4 53393.2
5363.6 52871.8 52788.5
5366.49 52264.3 52416.7
5369.37 52114 52443.5
5372.26 52952.3 52779.8
5375.15 53273.1 53032.3
5378.03 52871.5 53031.5
5380.92 52949.8 52986.5
5383.8 53138.1 53304
5386.69 53824.2 53462.1
5389.57 53424.1 53628.1
5392.46 53636 53293.8
5395.35 52821.2 53004.3
5398.23 52555.6 52349.2
5401.12 51670.7 51905.1
5404 51489 51659.4
5406.89 51818.4 51709.5
5409.77 51821.2 52036
5412.66 52468.5 52436.4
5415.54 53019.6 52847.1
5418.42 53053.2 52988.8
5421.31 52893.6 52806.2
5424.19 52471.8 52696
5427.08 52722.6 52677.5
5429.96 52838.2 52983.5
5432.85 53389.7 53265.2
5435.73 53567.8 53784.5
5438.61 54395.9 53840.5
5441.5 53558 53820.7
5444.38 53508.4 53612.2
5447.26 53770.3 53695.5
5450.15 53807.7 53852.2
5453.03 53978.6 53644.7
5455.91 53147.7 53563.4
5458.8 53563.7 53468.2
5461.68 53693.1 53648.8
5464.56 53689.7 53758.1
5467.45 53891.6 53721.6
5470.33 53583.5 53256.2
5473.21 52293.6 52820.7
5476.1 52585.1 52567.5
5478.98 52823.7 52917.5
5481.86 53343.8 53348.3
5484.74 53877.3 53798
5487.62 54172.9 54131.2
5490.51 54343.4 54239.4
5493.39 54201.8 54163.8
5496.27 53946.3 53930.7
5499.15 53644.1 53828.5
5502.03 53895.2 53572.4
5504.92 53177.9 53481.1
5507.8 53370.2 53369
5510.68 53558.9 53649
5513.56 54017.8 54111.6
5516.44 54758.2 54492.5
5519.32 54701.7 54617.5
5522.2 54392.7 54442.3
5525.09 54232.6 54158.5
5527.97 53850.3 54043.8
5530.85 54048.3 53849.2
5533.73 53649 53905.4
5536.61 54018.9 53965.3
5539.49 54227.9 54043.1
5542.37 53882.6 53879
5545.25 53526.6 53904.9
5548.13 54305.6 54086.2
5551.01 54426.4 54374.9
5553.89 54392.7 54555.3
5556.77 54846.7 54398.7
5559.65 53956.9 54325.8
5562.53 54174 54052.1
5565.41 54025.3 54059.4
5568.29 53979 53972.6
5571.17 53913.6 54009.5
5574.05 54135.8 54227.4
5576.93 54632.8 54212.7
5579.81 53869.6 54145.3
5582.68 53933.6 53651.1
5585.56 53150 53477.7
5588.44 53349.4 53334.8
5591.32 53504.9 53609.7
5594.2 53974.8 53681.1
5597.08 53563.7 53685
5599.96 53516.5 53675.2
5602.83 53945.5 53898.3
5605.71 54232.9 54033
5608.59 53920.5 54078.6
5611.47 54082.3 53821.5
5614.35 53461.5 53673.3
5617.22 53475.9 53506.4
5620.1 53581.7 53615.4
5622.98 53788.7 53777.6
5625.86 53962.3 54001.3
5628.73 54252.8 53976.8
5631.61 53715.1 53882.8
5634.49 53680.3 53675.9
5637.37 53632.3 53781.7
5640.24 54032.5 53720.6
5643.12 53497 53809.2
5646 53898 53932.4
5648.87 54402.3 53907.3
5651.75 53421.6 53566.6
5654.63 52876 52876.3
5657.5 52331.4 52402.8
5660.38 52001.1 52221.7
5663.25 52332.7 52343.8
5666.13 52697.6 52689.9
5669.01 53039.3 53046.6
5671.88 53402.8 53292.5
5674.76 53435.4 53436.3
5677.63 53470.9 53244.1
5680.51 52826.2 52978.5
5683.38 52638.4 52622
5686.26 52401.4 52598
5689.13 52754.1 52740
5692.01 53064.5 52816.4
5694.88 52630.7 52695.4
5697.76 52391 52494.8
5700.63 52462.7 52325.4
5703.51 52122.5 52212.2
5706.38 52051.3 52060.4
5709.26 52007.3 52052.2
5712.13 52098.1 52048.6
5715.01 52040.5 52280.6
5717.88 52703.4 52544
5720.75 52888.2 52876.6
5723.63 53038 52936
5726.5 52881.6 52835.1
5729.38 52585.7 52799
5732.25 52929.6 52911.2
5735.12 53218.2 53132.3
5738 53248.9 53079
5740.87 52769.9 52843.2
5743.74 52510.7 52407.7
5746.61 51942.6 52210.9
5749.49 52179.6 51972
5752.36 51794 51955.2
5755.23 51892.2 51915.4
5758.11 52060.1 51968.4
5760.98 51953 51791.4
5763.85 51361.2 51803.5
5766.72 52096.3 51756
5769.59 51810.5 51901.9
5772.47 51799 51764.8
5775.34 51684.8 51800.8
5778.21 51918.7 51584.6
5781.08 51150.3 51567.8
5783.95 51634.6 51310.5
5786.82 51146.7 51352
5789.7 51274.7 51254.6
5792.57 51342.3 51531.8
5795.44 51978.4 51572.3
5798.31 51396.3 51629.8
5801.18 51514.8 51384.9
5804.05 51243.5 51414.1
5806.92 51484 51435.1
5809.79 51577.8 51548.5
5812.66 51583.8 51654.2
5815.53 51801.1 51650.7
5818.4 51567.2 51605.6
5821.27 51448.5 51688.9
5824.14 52051 51816.5
5827.01 51949.9 51990.1
5829.88 51969.2 52068.3
5832.75 52285.8 52060.9
5835.62 51927.6 51987.3
5838.49 51748.4 51847.3
5841.36 51865.9 51931.2
5844.23 52179.3 51902.8
5847.1 51663.2 51698
5849.97 51251.3 51167.8
5852.83 50589 50926
5855.7 50937.8 50815.7
5858.57 50920.3 50818.3
5861.44 50596.8 51080.1
5864.31 51723.3 51400
5867.18 51879.8 51759.3
5870.04 51674.7 51846.1
5872.91 51983.7 51785.3
5875.78 51697.5 51659.6
5878.65 51297.8 51337.8
5881.52 51018.1 50985.1
5884.38 50639.3 50358.9
5887.25 49419.2 49790
5890.12 49311.6 49421
5892.98 49532.1 49465.2
5895.85 49552 49847.4
5898.72 50458.2 50055
5901.59 50154.9 50413.8
5904.45 50628.3 50606.9
5907.32 51037.5 50597.6
5910.18 50127 50726.2
5913.05 51014.1 50688.5
5915.92 50924.5 50823.6
5918.78 50532.3 50875.1
5921.65 51168.6 50822.8
5924.51 50767.6 50794
5927.38 50445.9 50571.9
5930.25 50502.1 50563.2
5933.11 50741.7 50496.1
5935.98 50244.4 50567.6
5938.84 50716.8 50456.9
5941.71 50409.5 50363.4
5944.57 49963.8 50147.2
5947.44 50068.3 50226.4
5950.3 50647.1 50374.4
5953.17 50408 50562.5
5956.03 50632.5 50404.2
5958.89 50172.2 50378
5961.76 50329.2 50276.5
5964.62 50328.1 50359.2
5967.49 50420.1 50439.9
5970.35 50571.5 50176.2
5973.21 49537 49916.3
5976.08 49640.3 49543.1
5978.94 49452 49538.7
5981.8 49523.8 49409
5984.67 49251.1 49363.2
5987.53 49314.6 49315.7
5990.39 49381.2 49470.3
5993.26 49715.1 49480.6
5996.12 49345.4 49654.4
5998.98 49902.5 49595.4
6001.84 49538.3 49493.1
6004.71 49038.6 49254
6007.57 49185.2 49126.9
6010.43 49156.8 49157
6013.29 49129 49006.5
6016.16 48733.6 48766
6019.02 48435.4 48518.8
6021.88 48387.3 48438.2
6024.74 48491.9 48583.2
6027.6 48870.3 48591.9
6030.46 48413.4 48656.6
6033.32 48686.1 48636.9
6036.18 48811 48849.7
6039.05 49051.8 48829.6
6041.91 48625.8 48716.4
6044.77 48471.6 48734.3
6047.63 49105.5 48785.7
6050.49 48779.9 48835
6053.35 48619.7 48670.7
6056.21 48612.5 48653.8
6059.07 48729.3 48545.1
6061.93 48293.6 48536.6
6064.79 48586.7 48408.4
6067.65 48344.8 48659.8
6070.51 49047.9 48714.7
6073.37 48751.3 48673.5
6076.22 48221.3 48402.7
6079.08 48235.6 48288.8
6081.94 48409.6 48278.3
6084.8 48189.6 48274.8
6087.66 48225.2 48235.5
6090.52 48291.5 48231.6
6093.38 48178.1 48076.2
6096.24 47759.1 47958.8
6099.09 47939.1 47751.4
6101.95 47556 47684.6
6104.81 47558.6 47682.3
6107.67 47932.4 47739.9
6110.52 47728.5 47852.8
6113.38 47897.4 47741.9
6116.24 47599.7 47783.3
6119.1 47852.7 47589.7
6121.95 47316.7 47457
6124.81 47201.6 47356.8
6127.67 47552.1 47092.7
6130.52 46524.3 46787.5
6133.38 46286.1 46103.9
6136.24 45501.4 45609.9
6139.09 45042.2 45504.1
6141.95 45968.6 45571.8
6144.81 45704.4 45856.5
6147.66 45896.4 45970.3
6150.52 46310.3 46126.1
6153.37 46171.7 46275.9
6156.23 46345.7 46332.4
6159.08 46479.9 46426.2
6161.94 46453 46407.9
6164.79 46290.6 46320.3
6167.65 46217.3 46267.6
6170.5 46294.9 46148.1
6173.36 45932.1 46059.1
6176.21 45950.3 45934.9
6179.07 45922.2 46032.1
6181.92 46223.7 46001.9
6184.78 45859.9 46034.8
6187.63 46020.8 45851.9
6190.48 45675.1 45952.4
6193.34 46161.4 46054.4
6196.19 46326.7 46244.9
6199.05 46246.7 46230.4
6201.9 46118 46243
6204.75 46364.4 46124.2
6207.61 45890.2 46135.2
6210.46 46151.2 45978.4
6213.31 45893.8 45909.6
6216.16 45683.8 45790.4
6219.02 45793.5 45678.7
6221.87 45558.8 44054.6
6224.72 40811.4 42238.4
6227.57 40345.1 40550.3
6230.43 40494.4 40341.2
6233.28 40184 40373.4
6236.13 40441.9 40314.5
6238.98 40317.6 40361.9
6241.83 40326.3 40229.7
6244.68 40045.2 40057.4
6247.53 39800.8 39943.8
6250.39 39985.4 39914.4
6253.24 39956.9 40024.1
6256.09 40130 40088
6258.94 40177 40224.7
6261.79 40367 40246
6264.64 40193.8 40206.6
6267.49 40059 40221.2
6270.34 40410.8 40115.6
6273.19 39876.8 39916.2
6276.04 39460.9 39771.9
6278.89 39977.9 39699.9
6281.74 39660.9 39702.9
6284.59 39469.8 39581.1
6287.44 39612.5 39549
6290.29 39564.7 39590.7
6293.13 39594.8 39508.8
6295.98 39366.8 39546.3
6298.83 39677.3 39403.4
6301.68 39166.1 39426
6304.53 39434.7 39413.3
6307.38 39639.2 39540.6
6310.23 39547.9 39518.6
6313.07 39368.6 39227
6315.92 38764.5 39206.2
6318.77 39485.6 39325.2
6321.62 39725.5 39684.2
6324.46 39841.5 39673.8
6327.31 39454.5 39561.4
6330.16 39388.3 39398.2
6333.01 39351.7 39413.8
6335.85 39501.4 39303
6338.7 39055.8 39201.7
6341.55 39048 39002.2
6344.39 38902.9 39073.1
6347.24 39268.3 39246.7
6350.08 39569 39312.5
6352.93 39100.1 39284.6
6355.78 39184.7 39156.5
6358.62 39184.6 39116.6
6361.47 38980.5 39133.6
6364.31 39235.6 38984.6
6367.16 38737.6 38886.6
6370 38686.7 38736.5
6372.85 38785.2 38736.3
6375.69 38736.9 38868
6378.54 39082 38835.4
6381.38 38687.3 38839.1
6384.23 38748 38740.1
6387.07 38784.9 38715.2
6389.92 38612.5 38617.9
6392.76 38456.4 38524.6
6395.6 38504.8 38483.5
6398.45 38489.4 38615.2
6401.29 38851.5 38524.1
6404.13 38231.3 38532.6
6406.98 38514.9 38198.6
6409.82 37849.5 38157.1
6412.66 38106.9 37990.8
6415.51 38016.1 38047
6418.35 38018 38092
6421.19 38242 38125.6
6424.03 38116.6 38065.2
6426.88 37836.8 37971.1
6429.72 37959.7 37893.5
6432.56 37884.1 38031.6
6435.4 38250.8 37992.7
6438.24 37843.1 37956.9
6441.09 37776.9 37934.7
6443.93 38184 38102.1
6446.77 38345.4 38072.7
6449.61 37688.8 37855
6452.45 37530.9 37591.5
6455.29 37554.7 37450.6
6458.13 37266.3 37433.4
6460.97 37479.3 37542.6
6463.81 37882.1 37684.2
6466.65 37691.1 37700.9
6469.49 37529.4 37711.8
6472.33 37914.9 37798.4
6475.17 37951 37817.7
6478.01 37587.3 37667.2
6480.85 37463.1 37481.4
6483.69 37393.8 37339.7
6486.53 37162.3 37019.9
6489.37 36503.7 36482.7
6492.21 35782.1 35842.5
6495.05 35241.8 35824.3
6497.88 36448.9 36092.9
6500.72 36588.1 36589.7
6503.56 36732.1 36714.1
6506.4 36822.2 36746.6
6509.24 36685.3 36704.7
6512.07 36606.6 36607.4
6514.91 36530.3 36551.4
6517.75 36517.2 36395.2
6520.59 36138 36316.1
6523.42 36293.2 36145
6526.26 36003.8 36086.6
6529.1 35962.9 35855.8
6531.93 35600.6 35568.2
6534.77 35141.1 35239
6537.61 34975.2 34840
6540.44 34403.7 34355.7
6543.28 33688.1 33661
6546.12 32891.3 32821.7
6548.95 31885.7 31878.9
6551.79 30859.6 30343.2
6554.62 28284.4 28261.4
6557.46 25640.1 25838.1
6560.29 23589.8 24578.4
6563.13 24505.2 24701.7
6565.96 26010.2 26194.5
6568.8 28068 27970.3
6571.63 29832.6 29576.2
6574.47 30827.9 31078.8
6577.3 32575.8 32191.2
6580.14 33169.9 33185.7
6582.97 33811.5 33860.9
6585.8 34601.3 34450.3
6588.64 34938.2 34794.7
6591.47 34844.5 34838.9
6594.3 34734 34935.9
6597.14 35229.1 35212.3
6599.97 35673.8 35552.9
6602.8 35755.6 35792.5
6605.64 35948.1 35717.9
6608.47 35449.9 35714.2
6611.3 35744.7 35702.5
6614.13 35912.7 35886.9
6616.97 36003.1 36092.1
6619.8 36360.5 36197.9
6622.63 36230 36316.2
6625.46 36358.1 36240.8
6628.29 36134.1 35997
6631.12 35498.6 35914.2
6633.95 36109.9 35975.1
6636.79 36316.8 36227.3
6639.62 36255.3 36184.1
6642.45 35980.4 36035.3
6645.28 35870.2 35920.2
6648.11 35909.9 35980.1
6650.94 36160.2 36136.8
6653.77 36340.2 36285.9
6656.6 36357.2 36401.5
6659.43 36507.2 36412.5
6662.26 36373 36259
6665.09 35896.7 36033
6667.92 35829.3 35853.7
6670.75 35835.2 35814.9
6673.57 35780.2 35814.3
6676.4 35827.5 35728
6679.23 35576.4 35803.5
6682.06 36006.6 35857.8
6684.89 35990.6 35973.7
6687.72 35924.1 35953.4
6690.54 35945.6 35945.3
6693.37 35966.2 35925.6
6696.2 35865 35977.9
6699.03 36102.6 35833.3
6701.86 35532.4 35725.1
6704.68 35540.2 35610.8
6707.51 35759.9 35789.9
6710.34 36069.5 35872.1
6713.16 35786.9 35787.7
6715.99 35506.8 35597.4
6718.82 35498.5 35569.6
6721.64 35703.7 35584.4
6724.47 35551.2 35612.3
6727.29 35582 35626.8
6730.12 35747.2 35713.6
6732.95 35811.5 35735.3
6735.77 35647.3 35562.3
6738.6 35228 35517.3
6741.42 35676.7 35447.5
6744.25 35437.7 35464.3
6747.07 35278.6 35456.3
6749.9 35652.6 35467.6
6752.72 35471.6 35511.9
6755.54 35411.5 35259.8
6758.37 34896.4 35225.3
6761.19 35368.1 35190.3
6764.02 35306.5 35287.6
6766.84 35188.3 35213.8
6769.66 35146.5 35127.4
6772.49 35047.4 35267.9
6775.31 35609.8 35337.6
6778.13 35355.7 35422.2
6780.96 35301.2 35292
6783.78 35219.1 35178
6786.6 35013.7 35022.9
6789.42 34835.9 34953.6
6792.25 35011.1 34897.8
6795.07 34846.2 34903.2
6797.89 34852.4 34897.2
6800.71 34992.8 35018.8
6803.53 35211.1 34981.3
6806.35 34740 34943.5
6809.18 34879.2 34800.2
6812 34781.5 34787.7
6814.82 34702.5 34757
6817.64 34787.1 34701.3
6820.46 34614.3 34772.9
6823.28 34917.3 34602.1
6826.1 34274.7 34543.9
6828.92 34439.8 34311.6
6831.74 34220.4 34256.9
6834.56 34110.4 34071.2
6837.38 33882.7 34005
6840.2 34021.8 33937.2
6843.02 33907.1 34072.4
6845.84 34288.4 34077.4
6848.65 34036.5 34174.9
6851.47 34199.8 34001.8
6854.29 33769.2 33887.9
6857.11 33694.6 33404.2
6859.93 32748.8 32450.6
6862.75 30908.3 30664.4
6865.56 28336 28715.2
6868.38 26901.3 27457.5
6871.2 27135.1 27402.8
6874.02 28171.9 28226.9
6876.83 29373.6 29224.2
6879.65 30127 29795.7
6882.47 29886.4 29989
6885.28 29953.5 29807.1
6888.1 29581.3 29696.6
6890.92 29554.9 29629.5
6893.73 29752.4 29810
6896.55 30122.7 30016.8
6899.37 30175.2 30309.7
6902.18 30631.3 30522.6
6905 30761.2 30721.6
6907.81 30772.4 30940.3
6910.63 31287.3 31086.7
6913.44 31200.3 31285.5
6916.26 31368.8 31522.8
6919.07 31999.4 31765.5
6921.89 31928.3 31935.4
6924.7 31878.7 31916.3
6927.51 31941.8 31982.5
6930.33 32126.9 32052.7
6933.14 32089.4 32172.5
6935.96 32301.2 32132.4
6938.77 32006.4 31995.8
6941.58 31679.9 31826.1
6944.4 31792 31812.8
6947.21 31966.4 31759.7
6950.02 31520.6 31774.3
6952.83 31835.9 31744.8
6955.65 31878 31923.5
6958.46 32056.5 31897.2
6961.27 31757 31970.2
6964.08 32097.1 31962.1
6966.89 32032.2 31919.1
6969.71 31627.9 31715.2
6972.52 31485.4 31591.6
6975.33 31661.4 31552.5
6978.14 31510.7 31501.5
6980.95 31332.5 31350.3
6983.76 31207.8 31226.4
6986.57 31139 31162.5
6989.38 31140.8 31153.7
6992.19 31181.2 31091
6995 30950.9 31059.1
6997.81 31045.2 30975.2
7000.62 30929.3 30941.3
7003.43 30849.3 30826.2
7006.24 30699.9 30705
7009.05 30565.7 30694
7011.86 30816.5 30576.8
7014.67 30348.2 30522.3
7017.48 30402.2 30367.2
7020.28 30351.3 30349.4
7023.09 30294.6 30327.3
7025.9 30335.9 30330
7028.71 30359.4 30374.7
7031.52 30428.6 30292.7
7034.32 30090.1 30221.1
7037.13 30144.6 30180.2
7039.94 30306 30264.8
7042.74 30343.7 30277.6
7045.55 30183.1 30214
7048.36 30115.3 30127.9
7051.16 30085.2 30042.8
7053.97 29928 29971.2
7056.78 29900.5 29933.2
7059.58 29971.1 29943.7
7062.39 29959.6 29863.6
7065.19 29660 29827.7
7068 29863.4 29831.4
7070.81 29970.9 29862.5
7073.61 29753.2 29785
7076.42 29631 29570.2
7079.22 29326.6 29618.9
7082.02 29899.1 29572.8
7084.83 29492.7 29580.4
7087.63 29349.3 29428.8
7090.44 29444.3 29412.7
7093.24 29444.4 29344.9
7096.04 29145.9 29279.6
7098.85 29248.6 29295
7101.65 29490.5 29247.9
7104.45 29004.5 29221.8
7107.26 29170.3 29001.9
7110.06 28831 28891.5
7112.86 28673.3 28753.1
7115.67 28755.1 28719.4
7118.47 28729.8 28677.6
7121.27 28547.8 28602
7124.07 28528.4 28537.7
7126.87 28536.9 28621.8
7129.67 28800.3 28649.8
7132.48 28612.4 28649.1
7135.28 28534.5 28560.8
7138.08 28535.4 28492.3
7140.88 28406.8 28415.9
7143.68 28305.4 28349.8
7146.48 28337.2 27263.3
7149.28 25147.4 26204.9
7152.08 25130.1 25181.2
7154.88 25266.1 25127.2
7157.68 24985.6 24993.6
7160.48 24729.3 24765.2
7163.28 24580.7 24545.7
7166.08 24327.3 24348.7
7168.88 24138.2 24210
7171.68 24164.4 24093.3
7174.47 23977.4 23972
7177.27 23774.2 23835.2
7180.07 23753.8 23680.8
7182.87 23514.4 23596
7185.67 23520 23446
7188.46 23303.8 23382.7
7191.26 23324.2 23341.7
7194.06 23397 23455
7196.86 23643.8 23475.2
7199.65 23384.9 23470.6
7202.45 23383 23509.2
7205.25 23759.8 23543.3
7208.04 23487.2 23758.6
7210.84 24028.9 23741.9
7213.64 23709.7 23852.1
7216.43 23817.7 23742.4
7219.23 23699.8 23663.8
7222.02 23474.1 23629.7
7224.82 23715.3 23448.8
7227.61 23157.1 23378.8
7230.41 23263.9 23131.2
7233.2 22972.6 23155.9
7236 23231.3 23141.8
7238.79 23221.6 23121.9
7241.59 22912.7 23054.6
7244.38 23029.4 22993.1
7247.17 23037.1 22959.5
7249.97 22812.1 22906.4
7252.76 22870 22875.9
7255.55 22945.6 22917.7
7258.35 22937.5 22904.6
7261.14 22830.7 22813.9
7263.93 22673.6 22750
7266.73 22745.6 22723.8
7269.52 22752.2 22663.5
7272.31 22492.7 22598.4
7275.1 22550.5 22592.1
7277.89 22733.1 22624.7
7280.69 22590.6 22558.1
7283.48 22350.6 22388.6
7286.27 22224.4 22280.9
7289.06 22267.6 22193.7
7291.85 22089.2 22307.3
7294.64 22565.2 22309.5
7297.43 22274.2 22476.8
7300.22 22590.9 22373.6
7303.01 22255.7 22403.2
7305.8 22362.9 22323
7308.59 22350.5 22382.5
7311.38 22434 22360.9
7314.17 22298.3 22436.8
7316.96 22578 22465.4
7319.75 22520 22521.3
7322.54 22466 22492.2
7325.33 22490.6 22442.6
7328.12 22371.3 22405.6
7330.9 22355 22347.1
7333.69 22314.9 22440.9
7336.48 22652.9 22536.7
7339.27 22642.3 22596.5
7342.05 22494.3 22565.6
7344.84 22560.2 22516.5
7347.63 22495 22376.5
7350.42 22074.4 22181.9
7353.2 21976.4 22092.1
7355.99 22225.7 22069.9
7358.78 22007.7 22084.1
7361.56 22019.1 22054.9
7364.35 22138 22108.4
7367.13 22168.1 22143
7369.92 22122.7 22094.1
7372.7 21991.5 22093.1
7375.49 22165 22046.6
7378.27 21983.4 21986.3
7381.06 21810.5 21711.7
7383.84 21341.2 21577.8
7386.63 21581.8 21494.9
7389.41 21561.6 21562.1
7392.2 21542.8 21518
7394.98 21449.6 21504
7397.76 21519.4 21461.2
7400.55 21414.7 21399.2
7403.33 21263.5 21318.7
7406.11 21278 21245.7
7408.9 21195.6 21243
7411.68 21255.4 21193
7414.46 21128 21138.9
7417.24 21033.4 21045.1
7420.03 20973.9 21090.2
7422.81 21263.3 21129.6
7425.59 21151.5 21188.2
7428.37 21149.8 21215.5
7431.15 21345.1 21176.7
7433.93 21035.1 21170.4
7436.72 21131 21064
7439.5 21025.8 21028.5
7442.28 20928.9 20982.7
7445.06 20993.4 20916.1
7447.84 20826 20934
7450.62 20982.6 20925.8
7453.4 20968.7 21001.7
7456.18 21053.8 20889.1
7458.96 20644.8 20807.6
7461.74 20724.3 20739.4
7464.52 20849.1 20816
7467.29 20874.7 20925.9
7470.07 21054 20966.9
7472.85 20972 21058.6
7475.63 21150 20980.6
7478.41 20819.7 20899.6
7481.19 20729.1 20749.6
7483.96 20700.1 20636.3
7486.74 20479.8 20567.5
7489.52 20522.7 20382.4
7492.3 20144.8 20313.3
7495.07 20272.4 20253.5
7497.85 20343.4 20362.9
7500.63 20473 20412.8
7503.4 20422.2 20381.4
7506.18 20249 20241
7508.95 20051.9 20151.8
7511.73 20154.5 20197.4
7514.5 20386 20252.4
7517.28 20216.7 20247.7
7520.06 20140.3 20147.8
7522.83 20086.2 20073.8
7525.61 19994.8 20093.7
7528.38 20200.1 20043.9
7531.15 19936.9 20029.7
7533.93 19952.1 19896.6
7536.7 19800.8 19959.6
7539.48 20125.9 19958.2
7542.25 19947.8 20004.7
7545.02 19940.3 19942.8
7547.8 19940.3 19944
7550.57 19951.3 19880.7
7553.34 19750.4 19892.6
7556.11 19975.9 19912.3
7558.89 20010.6 19998.4
7561.66 20008.5 19946.7
7564.43 19821 19826.5
7567.2 19649.9 19654.1
7569.97 19491.3 19511
7572.75 19391.8 19453.5
7575.52 19477.5 19439
7578.29 19447.6 19385.2
7581.06 19230.6 19149.8
7583.83 18771.3 18661.1
7586.6 17981.3 17592.8
7589.37 16025.6 15655.3
7592.14 12958.8 13025.2
7594.91 10091 10465.2
7597.68 8345.84 8425.28
7600.45 6838.98 7228.5
7603.22 6500.67 6762.2
7605.99 6946.97 7205.39
7608.76 8168.54 8426.33
7611.52 10163.5 10298
7614.29 12562 11862.6
7617.06 12862.4 12583.4
7619.83 12325.7 12177.7
7622.6 11344.9 11550
7625.36 10979.5 11002.5
7628.13 10683.1 10887.6
7630.9 11000.3 11039.7
7633.67 11435.8 11317.4
7636.43 11516.1 11701.3
7639.2 12152 12106.3
7641.97 12650.8 12672.9
7644.73 13215.9 13192.4
7647.5 13710.5 13647.3
7650.26 14015.4 14093
7653.03 14553.1 14478.5
7655.79 14866.8 14898.7
7658.56 15276.3 15173
7661.32 15375.9 15408.3
7664.09 15572.8 15674.9
7666.85 16076.1 16033.4
7669.62 16451.5 16430.4
7672.38 16763.7 16666.1
7675.15 16783 16819.4
7677.91 16911.6 16978.7
7680.67 17241.5 17229.9
7683.44 17536.4 17437.6
7686.2 17534.9 17511.2
7688.96 17462.4 17449.7
7691.73 17351.9 17424.9
7694.49 17460.4 17484.7
7697.25 17641.7 17549.1
7700.01 17545.2 17615.3
7702.78 17658.9 17561.7
7705.54 17481 17485.8
7708.3 17317.4 17312.8
7711.06 17139.9 17211.7
7713.82 17177.8 17232.2
7716.58 17378.9 17401.6
7719.34 17648 17463.8
7722.1 17364.6 17554.3
7724.86 17650.1 17498.6
7727.62 17480.9 17574.4
7730.38 17592 17523.1
7733.14 17496.3 17455.9
7735.9 17279.4 17322.5
7738.66 17191.8 17191.4
7741.42 17103 17149.7
7744.18 17154.2 16994.3
7746.94 16725.6 17021.7
7749.7 17185.4 16935.6
7752.46 16896 16965.1
7755.21 16813.8 16757.3
7757.97 16562 16660.8
7760.73 16606.5 16591
7763.49 16604.4 16606.8
7766.24 16609.6 16379.4
7769 15924.1 16053.6
7771.76 15627.2 15710.8
7774.51 15581 15640
7777.27 15711.7 15653.3
7780.03 15667.2 15766.5
7782.78 15920.6 15878
7785.54 16046.3 15968.8
7788.29 15939.4 16096.5
7791.05 16303.9 16156.5
7793.8 16226.3 16222.5
7796.56 16137.4 16270.7
7799.31 16448.6 16319.7
7802.07 16373.2 16343.9
7804.82 16209.8 16242.1
7807.58 16143.4 16200.9
7810.33 16249.6 16235.2
7813.08 16312.6 16283
7815.84 16286.8 16341.3
7818.59 16424.6 16232.8
7821.34 15986.9 16209.9
7824.1 16218.2 16039.3
7826.85 15913 16040.6
7829.6 15990.6 15939.5
7832.35 15914.9 15977.3
7835.11 16026.3 15951.1
7837.86 15912.1 15985.3
7840.61 16017.6 15980.8
7843.36 16012.6 15994.5
7846.11 15953.2 15926.5
7848.86 15813.6 15770.5
7851.61 15544.8 15635.6
7854.36 15548.5 15539.2
7857.11 15524.4 15458
7859.86 15301 15381.7
7862.61 15319.8 15353.4
7865.36 15439.3 15436.7
7868.11 15551 15533.2
7870.86 15609.3 15534.8
7873.61 15444.1 15449.9
7876.36 15296.5 15304.9
7879.11 15174.1 15205.1
7881.86 15144.8 15114.9
7884.61 15026 15231.7
7887.35 15524.4 15207.9
7890.1 15073.4 15177.9
7892.85 14936 14930.4
7895.6 14781.7 14918.9
7898.34 15038.8 14891
7901.09 14852.5 14942.2
7903.84 14935.4 14835.3
7906.58 14718 14813.6
7909.33 14787.3 14780.8
7912.08 14837.1 14798.5
7914.82 14771.2 14606.9
7917.57 14212.3 14479.6
7920.31 14455.2 14308.9
7923.06 14259.4 14261.3
7925.8 14069.4 14159.7
7928.55 14150.4 14004.8
7931.29 13794.8 13866.3
7934.04 13653.7 13749.9
7936.78 13801.2 13725.4
7939.53 13721.5 13781
7942.27 13820.2 13862.2
7945.01 14045 14006.2
7947.76 14153.2 14023.6
7950.5 13872.7 14079.8
7953.24 14213.5 14085.2
7955.99 14169.4 14041.4
7958.73 13741.4 13986
7961.47 14047.3 13913.4
7964.21 13951.5 13931.7
7966.95 13796.3 13938
7969.7 14066.3 14022.5
7972.44 14204.9 14079.5
7975.18 13967.3 14098.7
7977.92 14124 14015.3
7980.66 13954.8 13962.5
7983.4 13808.7 13900.9
7986.14 13939.2 13832.8
7988.88 13750.4 13811.8
7991.62 13745.9 13716.4
7994.36 13652.9 13705.4
7997.1 13717.6 13704.2
7999.84 13742 13666.6
8002.58 13540.2 13727.2
8005.32 13899.5 13734.7
8008.06 13764.4 13779.4
8010.8 13674.1 13226.9
8013.53 12242.2 12630.2
8016.27 11974.3 12166.5
8019.01 12283 12180.4
8021.75 12284 12230.8
8024.48 12125.3 12081.2
8027.22 11834.3 12015.4
8029.96 12086.7 12010.3
8032.69 12110 12114.5
8035.43 12146.8 12095.5
8038.17 12029.7 12056.8
8040.9 11993.9 12005.5
8043.64 11993 11961
8046.37 11896.2 11950.8
8049.11 11963.2 11896.3
8051.85 11829.5 11827
8054.58 11688.5 11728.5
8057.32 11667.7 11738.2
8060.05 11858.3 11775.5
8062.78 11800.4 11815.1
8065.52 11786.5 11769.7
8068.25 11722.3 11745.2
8070.99 11726.7 11630.1
8073.72 11441.3 11545.6
8076.45 11468.7 11464.4
8079.19 11483.1 11512.4
8081.92 11585.4 11436.3
8084.65 11240.4 11461.2
8087.38 11557.9 11392.9
8090.11 11380.3 11410.3
8092.85 11292.7 11314.2
8095.58 11269.7 11332.6
8098.31 11435.3 11320.7
8101.04 11257.1 11334.6
8103.77 11311.4 11253.4
8106.5 11191.6 11314.5
8109.23 11440.4 11253.3
8111.96 11127.9 11223.8
8114.69 11103.1 11054.7
8117.42 10933 11040.7
8120.15 11085.9 11010.2
8122.88 11011.7 11009.8
8125.61 10931.9 10984.2
8128.34 11009.1 10889.7
8131.07 10728.3 10848.2
8133.8 10807.3 10759.6
8136.53 10743.1 10866.4
8139.26 11048.8 10834.9
8141.98 10712.7 10714.8
8144.71 10382.9 10460.3
8147.44 10285.3 10389.4
8150.17 10499.9 10344.3
8152.89 10247.6 10360.3
8155.62 10333.4 10255.5
8158.35 10185.5 10217.4
8161.07 10133.3 10155.4
8163.8 10147.4 10108.5
8166.52 10044.9 10153.6
8169.25 10268.4 10170.8
8171.98 10198.9 10167.7
8174.7 10035.7 10075.6
8177.43 9992 9957.39
8180.15 9844.43 9919.69
8182.88 9922.63 9940.88
8185.6 10055.6 9962.53
8188.32 9909.38 9923.2
8191.05 9804.63 9766.37
8193.77 9585.1 9614.48
8196.5 9453.71 9532.49
8199.22 9558.65 9595.76
8201.94 9774.91 9767.83
8204.66 9969.94 9914.01
8207.39 9997.16 9984.22
8210.11 9985.54 9980.25
8212.83 9958.05 9938.59
8215.55 9872.17 9874.51
8218.28 9793.31 9775.92
8221 9662.29 9672.87
8223.72 9563.01 9520.21
8226.44 9335.32 9406.67
8229.16 9321.69 9493.67
8231.88 9823.99 9616.3
8234.6 9703.22 9797.06
8237.32 9863.98 9851.38
8240.04 9986.92 9910.67
8242.76 9881.11 9997.93
8245.48 10125.8 9987.1
8248.2 9954.44 9928.02
8250.92 9703.85 9827.49
8253.64 9824.2 9753.75
8256.36 9733.21 9796.7
8259.07 9832.69 9876.92
8261.79 10064.9 9932.92
8264.51 9901.2 10014.8
8267.23 10078.3 9962.1
8269.95 9906.82 9918.64
8272.66 9770.82 9819.3
8275.38 9780.26 9779.96
8278.1 9788.79 9772.77
8280.81 9749.24 9775.53
8283.53 9788.56 9707.66
8286.25 9585.17 9645.96
8288.96 9564.16 9646.64
8291.68 9790.58 9678.75
8294.39 9681.5 9766.2
8297.11 9826.52 9752.59
8299.82 9749.74 9724.48
8302.54 9597.17 9659.49
8305.25 9631.57 9703.28
8307.97 9881.12 9720.64
8310.68 9649.23 9778.44
8313.39 9804.99 9785.03
8316.11 9900.87 9785.62
8318.82 9651 9746.32
8321.53 9687.09 9640.32
8324.25 9582.86 9610.4
8326.96 9561.25 9573.72
8329.67 9577.06 9567.88
8332.38 9565.32 9544.71
8335.1 9491.74 9502.56
8337.81 9450.63 9467.84
8340.52 9461.17 9506.14
8343.23 9606.64 9509.66
8345.94 9461.19 9551.59
8348.65 9586.95 9569.06
8351.36 9659.04 9658.07
8354.07 9728.2 9664.16
8356.78 9605.22 9660.22
8359.49 9647.22 9639.29
8362.2 9665.42 9701.57
8364.91 9792.07 9685.85
8367.62 9600.06 9643.61
8370.33 9538.7 9583.11
8373.04 9610.57 9579.42
8375.75 9588.99 9596.52
8378.46 9590 9583.14
8381.17 9570.42 9614.73
8383.87 9683.76 9548.01
8386.58 9389.84 9502.17
8389.29 9432.89 9457.37
8392 9549.37 9482.82
8394.7 9466.21 9532.27
8397.41 9581.23 9474.97
8400.12 9377.48 9485.27
8402.82 9497.09 9510.31
8405.53 9656.36 9580.7
8408.24 9588.64 9615.31
8410.94 9600.92 9584.63
8413.65 9564.34 9618.42
8416.35 9689.99 9612.4
8419.06 9582.88 9674.98
8421.76 9752.09 9626.7
8424.47 9545.14 9616.92
8427.17 9553.54 9544.51
8429.87 9534.84 9509.21
8432.58 9439.25 9447.56
8435.28 9368.58 9433.27
8437.98 9491.98 9397.57
8440.69 9332.14 9369.4
8443.39 9284.07 9284.63
8446.09 9237.67 9262.74
8448.8 9266.49 9282.34
8451.5 9342.87 9353.41
8454.2 9450.87 9402.25
8456.9 9413 9466.85
8459.6 9536.68 9489.13
8462.3 9517.72 9414.74
8465 9189.83 9300.77
8467.71 9194.76 9204.4
8470.41 9228.59 9229.14
8473.11 9264.07 9288.83
8475.81 9373.82 9375.22
8478.51 9487.75 9470.75
8481.21 9550.67 9535.41
8483.91 9567.8 9547.81
8486.6 9524.94 9525.01
8489.3 9482.28 9433.74
8492 9294.01 9335.01
8494.7 9228.73 9136.52
8497.4 8886.83 8946.75
8500.1 8724.69 8828.76
8502.79 8874.75 8852.29
8505.49 8957.43 9017.3
8508.19 9219.73 9194.57
8510.89 9406.54 9341.51
8513.58 9398.25 9369.74
8516.28 9304.44 9366.48
8518.98 9396.76 9396.05
8521.67 9486.96 9461.37
8524.37 9500.4 9506.91
8527.06 9533.37 9559.83
8529.76 9645.73 9514.02
8532.45 9362.95 9454.51
8535.15 9354.83 9273.1
8537.84 9101.5 9025.84
8540.54 8621.17 8685.64
8543.23 8334.26 8490.21
8545.93 8515.19 8559.87
8548.62 8830.16 8808.3
8551.31 9079.54 9051.01
8554.01 9243.33 9150.85
8556.7 9129.67 9272.44
8559.39 9444.33 9364.86
8562.09 9520.58 9533.11
8564.78 9634.4 9618.53
8567.47 9700.61 9660.33
8570.16 9645.97 9617.84
8572.85 9506.94 9532.19
8575.55 9443.65 9476.86
8578.24 9479.99 9543.53
8580.93 9706.94 9534.87
8583.62 9417.69 9499.67
8586.31 9374.37 9375.67
8589 9334.93 9272.54
8591.69 9108.3 9158.14
8594.38 9031.2 8969.73
8597.07 8769.67 8832.78
8599.76 8697.47 8744.09
8602.45 8765.13 8805.13
8605.13 8952.77 8920.72
8607.82 9044.25 9066.7
8610.51 9203.07 9158.86
8613.2 9229.27 9296.85
8615.89 9458.2 9367.29
8618.58 9414.4 9474.24
8621.26 9550.13 9510.64
8623.95 9567.38 9561.79
8626.64 9567.85 9666.74
8629.32 9864.99 9676.97
8632.01 9598.06 9750.51
8634.7 9788.47 9697.83
8637.38 9706.95 9728.35
8640.07 9689.64 9641.17
8642.75 9526.91 9549.42
8645.44 9431.72 9496.74
8648.12 9531.61 9378.18
8650.81 9171.22 9323.65
8653.49 9268.13 9148.02
8656.18 9004.7 9099.03
8658.86 9024.27 8753.45
8661.55 8231.37 8407.61
8664.23 7967.21 7991.44
8666.91 7775.74 7928.61
8669.6 8042.89 8086.12
8672.28 8439.74 8358.77
8674.96 8593.68 8525.24
8677.64 8542.31 8615.35
8680.33 8710.08 8733.23
8683.01 8947.29 8934.72
8685.69 9146.8 9125.11
8688.37 9281.23 9229.79
8691.05 9261.34 9244.64
8693.73 9191.35 9285.03
8696.41 9402.41 9332.53
8699.09 9403.84 9425.98
8701.77 9471.7 9534.55
8704.45 9728.12 9617.12
8707.13 9651.54 9668.18
8709.81 9624.87 9562.13
8712.49 9409.99 9500.2
8715.17 9465.75 9434.12
8717.85 9426.62 9445.51
8720.53 9444.17 9504.83
8723.21 9643.71 9539.13
8725.89 9529.52 9583.5
8728.56 9577.27 9524.7
8731.24 9467.31 9445.91
8733.92 9293.14 9360.89
8736.6 9322.22 9210.6
8739.27 9016.45 9038.74
8741.95 8777.57 8822.65
8744.63 8673.95 8657.86
8747.3 8522.07 8425.97
8749.98 8081.89 8168.13
8752.65 7900.42 7968.32
8755.33 7922.65 8003.9
8758 8188.62 8185.96
8760.68 8446.62 8428.27
8763.35 8649.58 8636.65
8766.03 8813.76 8860.91
8768.7 9119.4 9051.42
8771.38 9221.09 9205.39
8774.05 9275.69 9172.31
8776.72 9020.14 9241.59
8779.4 9428.92 9288.9
8782.07 9417.63 9417.97
8784.74 9407.36 9546.25
8787.42 9813.76 9519.96
8790.09 9338.75 9457.05
8792.76 9218.64 9330.46
8795.43 9434 9347.13
8798.1 9388.74 9422.26
8800.77 9444.04 9467.38
8803.45 9569.34 9472.98
8806.12 9405.55 9428.66
8808.79 9311.08 9314.05
8811.46 9225.54 9341.42
8814.13 9487.63 9355.96
8816.8 9354.72 9331.2
8819.47 9151.24 9224.27
8822.14 9166.84 9182.42
8824.81 9229.18 9193.39
8827.47 9184.17 9193.95
8830.14 9168.5 9217.45
8832.81 9299.66 9193.89
8835.48 9113.51 9128.39
8838.15 8972 8980.3
8840.81 8855.37 8870.09
8843.48 8782.89 8841.9
8846.15 8887.43 8554.54
8848.82 7993.31 8248.13
8851.48 7863.65 7883.34
8854.15 7793.06 7699.56
8856.82 7441.97 7469.36
8859.48 7173.05 7081.9
8862.15 6630.67 6794.69
8864.81 6580.34 6546.91
8867.48 6429.73 6563.98
8870.14 6681.86 6738.93
8872.81 7105.2 7027.38
8875.47 7295.07 7369.57
8878.14 7708.46 7563.69
8880.8 7687.56 7730.26
8883.46 7794.76 7716.73
8886.13 7667.86 7772.65
8888.79 7855.33 7821.52
8891.45 7941.37 7919.8
8894.12 7962.69 8003.25
8896.78 8105.69 8093.83
8899.44 8213.1 8161.62
8902.1 8166.06 8122.27
8904.77 7987.64 8075.79
8907.43 8073.67 8027.93
8910.09 8022.48 8064.3
8912.75 8096.75 8085.98
8915.41 8138.71 8143.76
8918.07 8195.83 8156.19
8920.73 8134.05 8142.3
8923.39 8097.03 8060.45
8926.05 7950.27 7961.14
8928.71 7836.1 7895.68
8931.37 7900.68 7852.12
8934.03 7819.59 7913.43
8936.69 8020.01 7974.37
8939.35 8083.5 8030.44
8942.01 7987.82 8033.78
8944.66 8030 7946.26
8947.32 7820.96 7875.74
8949.98 7776.26 7776.8
8952.64 7733.19 7766.21
8955.29 7789.19 7789.61
8957.95 7846.46 7836.99
8960.61 7875.34 7828.42
8963.26 7763.47 7685.89
8965.92 7418.87 7568.77
8968.58 7523.96 7461.08
8971.23 7440.4 7454.2
8973.89 7398.23 7394.47
8976.54 7344.78 7392.48
8979.2 7434.44 7390.3
8981.85 7391.68 7415.83
8984.51 7421.38 7357.44
8987.16 7259.25 7258.76
8989.81 7095.66 7087.46
8992.47 6907.47 6923.86
8995.12 6768.45 6860.78
8997.77 6906.41 6869.78
9000.43 6934.48 6863.18
9003.08 6748.65 6727.75
9005.73 6500.11 6561.33
9008.38 6435.23 6437.56
9011.04 6377.34 6310.32
9013.69 6118.39 6068.7
9016.34 5710.38 5759.17
9018.99 5448.74 5538.04
9021.64 5454.99 5579.11
9024.29 5833.59 5772.44
9026.94 6028.74 6040.84
9029.59 6260.21 6260.99
9032.24 6494.04 6534.62
9034.89 6849.62 6753.92
9037.54 6918.09 6924.48
9040.19 7005.72 6966.68
9042.84 6976.25 7004.31
9045.49 7030.96 7014.28
9048.14 7035.63 7021.02
9050.78 6996.46 7105.99
9053.43 7285.87 7107.14
9056.08 7039.08 7137.52
9058.73 7087.62 7070.53
9061.37 7084.88 7016.01
9064.02 6875.52 6818.95
9066.67 6496.44 6655.88
9069.31 6595.66 6156.66
9071.96 5377.88 5339.91
9074.61 4046.18 3141.36
