wavelength spectrum_sum 3smoothed_sum spectrum_optimal 3smoothed_optimal
3505.35 26.6992 22.445 -0.393482 5.16513
3508.27 40.6357 37.5939 15.8889 8.74373
3511.19 45.4466 43.9895 10.7358 15.1326
3514.11 45.8861 34.7542 18.773 7.06576
3517.03 12.9298 39.9531 -8.31152 12.1275
3519.95 61.0435 36.8777 25.9211 14.073
3522.87 36.6597 49.1428 24.6095 17.8682
3525.79 49.7252 40.9575 3.07403 5.41295
3528.71 36.4875 32.0473 -11.4447 0.616264
3531.63 9.92908 31.8121 10.2194 2.93589
3534.55 49.0197 16.1771 10.0329 10.3338
3537.47 -10.4174 23.6577 10.7491 7.75064
3540.39 32.3709 9.74127 2.46992 13.4876
3543.31 7.27028 7.95694 27.2437 11.5015
3546.23 -15.7704 -4.44901 4.79069 18.9981
3549.15 -4.8469 1.129 24.9597 16.8511
3552.07 24.0043 14.719 20.803 23.4819
3554.99 24.9997 18.1217 24.6829 20.0462
3557.91 5.36107 16.9956 14.6527 17.845
3560.83 20.6261 11.8087 14.1996 28.2592
3563.75 9.43901 46.88 55.9253 40.1036
3566.67 110.575 58.5625 50.1861 42.028
3569.59 55.6736 70.7989 19.9725 28.2625
3572.51 46.1483 52.6811 14.6289 16.6718
3575.43 56.2215 65.2827 15.4141 24.9285
3578.35 93.4783 70.97 44.7425 30.7882
3581.27 63.2102 87.7254 32.208 41.4895
3584.19 106.488 72.3527 47.5179 35.5472
3587.11 47.3602 56.7409 26.9158 18.7849
3590.03 16.3747 28.7867 -18.079 1.78251
3592.95 22.6251 26.6121 -3.4893 -7.86267
3595.87 40.8365 29.5891 -2.01973 2.89368
3598.79 25.3056 57.8751 14.1901 12.984
3601.71 107.483 67.959 26.7815 20.4513
3604.63 71.0881 92.034 20.3823 13.9456
3607.55 97.5308 78.5825 -5.32692 12.6077
3610.47 67.1288 70.2454 22.7677 13.634
3613.39 46.0767 56.0786 23.4612 17.2434
3616.3 55.0303 66.3014 5.50132 24.4521
3619.22 97.7971 67.5745 44.3938 19.1238
3622.14 49.8961 70.9362 7.47638 17.8643
3625.06 65.1154 60.4776 1.72276 4.23956
3627.98 66.4213 67.8199 3.51954 12.2081
3630.9 71.9229 67.0775 31.3821 21.5596
3633.82 62.8883 57.9409 29.7771 34.1526
3636.74 39.0114 33.9745 41.2987 35.5841
3639.66 0.0237223 10.9884 35.6764 40.9641
3642.58 -6.06992 10.8341 45.9173 36.2683
3645.5 38.5486 11.2805 27.2112 33.0077
3648.42 1.36287 -0.870387 25.8946 35.2736
3651.34 -42.5226 -55.7474 52.7149 41.859
3654.26 -126.082 -69.6889 46.9676 33.8839
3657.18 -40.4616 -80.2024 1.96914 20.836
3660.09 -74.0632 -50.0152 13.5711 33.1178
3663.01 -35.5207 -44.3089 83.8131 42.0092
3665.93 -23.3427 -33.2275 28.6435 56.3203
3668.85 -40.8191 -22.7103 56.5044 46.5696
3671.77 -3.96917 -49.1806 54.5609 46.5695
3674.69 -102.754 -40.586 28.6431 29.5427
3677.61 -15.0354 -44.9781 5.42407 30.5541
3680.53 -17.1452 -19.2234 57.5952 21.3683
3683.45 -25.4897 -29.2442 1.08574 34.692
3686.37 -45.0978 -65.8942 45.3951 37.4303
3689.29 -127.095 -66.9794 65.8102 58.7851
3692.2 -28.7452 -75.3317 65.15 41.8479
3695.12 -70.1548 -62.9693 -5.41645 30.7291
3698.04 -90.0079 -60.2185 32.4537 23.4553
3700.96 -20.4927 -48.6942 43.3286 36.6776
3703.88 -35.5819 -28.2008 34.2506 46.0433
3706.8 -28.5277 -32.675 60.5507 46.0024
3709.72 -33.9153 -36.3378 43.2057 38.0271
3712.64 -46.5705 -13.8905 10.3249 41.3052
3715.56 38.8143 12.2507 70.385 60.2365
3718.47 44.5085 37.2218 99.9998 83.454
3721.39 28.3428 43.0901 79.9773 86.3329
3724.31 56.4189 41.6602 79.0217 85.3081
3727.23 40.2189 51.0202 96.9254 84.2599
3730.15 56.4227 53.1443 76.8327 68.5533
3733.07 62.7914 58.9576 31.9018 63.7906
3735.99 57.6588 53.4442 82.6371 43.6717
3738.91 39.8822 61.9594 16.4762 61.0672
3741.82 88.337 76.9158 84.0884 64.392
3744.74 102.528 91.9661 92.6113 80.0909
3747.66 85.0332 49.0023 63.573 68.3977
3750.58 -40.5544 4.3344 49.0088 44.5877
3753.5 -31.4756 -28.4793 21.1813 33.2901
3756.42 -13.408 -15.5006 29.6802 40.1515
3759.33 -1.61823 -17.6671 69.5931 57.5512
3762.25 -37.9752 -17.459 73.3805 63.976
3765.17 -12.7835 -78.5952 48.9545 57.3859
3768.09 -185.027 -78.7054 49.8226 51.6661
3771.01 -38.3059 -105.485 56.2211 53.9176
3773.93 -93.1211 -126.517 55.7089 55.781
3776.84 -248.123 -152.175 55.4131 51.4599
3779.76 -115.282 -158.177 43.2576 34.9938
3782.68 -111.126 -99.4135 6.3106 20.3645
3785.6 -71.833 -76.7134 11.5252 15.8888
3788.52 -47.1813 -52.8855 29.8307 27.785
3791.44 -39.6421 -37.2662 41.9991 43.6986
3794.35 -24.9753 -13.3594 59.2661 65.0672
3797.27 24.5392 -70.7042 93.9363 59.0365
3800.19 -211.677 -86.4182 23.9072 57.4738
3803.11 -72.1172 -133.749 54.5779 53.8017
3806.03 -117.455 -81.698 82.9201 72.968
3808.94 -55.5221 -72.0443 81.4059 62.6445
3811.86 -43.1563 -30.5718 23.6076 51.9923
3814.78 6.96312 -3.93741 50.9634 43.8448
3817.7 24.3809 34.7122 56.9634 49.4056
3820.62 72.7926 65.4709 40.2899 44.7681
3823.53 99.2391 107.867 37.051 37.2772
3826.45 151.569 132.451 34.4906 32.1644
3829.37 146.545 167.272 24.9516 44.9342
3832.29 203.702 130.581 75.3603 46.6365
3835.21 41.4962 120.078 39.5978 50.9394
3838.12 115.037 58.7535 37.86 39.7879
3841.04 19.7267 38.0107 41.906 35.9314
3843.96 -20.7321 -0.206826 28.0282 38.7481
3846.88 0.384964 -4.36432 46.3101 50.4324
3849.79 7.25418 5.27057 76.9589 49.5652
3852.71 8.17256 14.2238 25.4266 57.7982
3855.63 27.2446 22.8516 71.0092 53.7723
3858.55 33.1377 -33.4175 64.8811 64.6539
3861.46 -160.635 -51.4849 58.0714 59.0685
3864.38 -26.9576 -105.163 54.253 50.638
3867.3 -127.897 -57.3613 39.5896 37.7966
3870.22 -17.2297 -102.049 19.5472 29.085
3873.13 -161.02 -57.6502 28.1181 33.2006
3876.05 5.29898 -52.3669 51.9364 27.7102
3878.97 -1.37978 6.81739 3.07607 24.7997
3881.89 16.533 36.0034 19.3866 9.06006
3884.8 92.8569 60.1602 4.71752 15.1034
3887.72 71.0906 44.9221 21.2061 10.279
3890.64 -29.1812 11.1719 4.91331 29.9569
3893.55 -8.39375 -37.3681 63.7511 54.9892
3896.47 -74.5295 -59.2839 96.3032 64.835
3899.39 -94.9285 -83.0852 34.4508 40.5261
3902.31 -79.7975 -63.5355 -9.17579 26.2297
3905.22 -15.8806 -65.4781 53.4142 31.9018
3908.14 -100.756 -83.9984 51.4669 65.8097
3911.06 -135.359 -113.235 92.5481 60.6094
3913.97 -103.591 -145.184 37.8131 58.538
3916.89 -196.603 -132.656 45.2526 72.2498
3919.81 -97.7739 -78.4552 133.684 71.7466
3922.72 59.011 50.5442 36.3036 65.93
3925.64 190.396 147.647 27.8028 19.0568
3928.56 193.535 225.095 -6.93593 12.3343
3931.47 291.353 259.422 16.136 7.23108
3934.39 293.378 262.734 12.4931 13.3803
3937.31 203.469 230.49 11.5117 19.881
3940.23 194.622 132.2 35.6381 22.6345
3943.14 -1.49259 65.6661 20.7535 35.5865
3946.06 3.86841 -71.9919 50.3677 61.1818
3948.97 -218.352 -101.843 112.424 68.3037
3951.89 -91.0448 -130.406 42.119 66.1794
3954.81 -81.8231 -70.4341 43.9948 6.59825
3957.72 -38.4345 -26.9156 -66.3191 -34.4725
3960.64 39.5107 6.77088 -81.0931 -84.0516
3963.56 19.2364 71.3152 -104.743 -83.8283
3966.47 155.199 122.16 -65.649 -80.1128
3969.39 192.045 149.466 -69.9469 -43.7309
3972.31 101.154 103.147 4.40319 -28.9144
3975.22 16.2409 -4.19145 -21.1996 -7.46138
3978.14 -129.97 -109.92 -5.58769 -20.9378
3981.06 -216.031 -249.459 -36.0261 -6.06424
3983.97 -402.376 -284.363 23.4211 13.9751
3986.89 -234.681 -297.091 54.5304 49.626
3989.8 -254.216 -260.606 70.9266 31.1701
3992.72 -292.92 -262.906 -31.9468 60.9337
3995.64 -241.582 -339.219 143.821 60.0421
3998.55 -483.155 -417.027 68.2518 106.702
4001.47 -526.344 -411.921 108.033 106.431
4004.38 -226.265 -347.39 143.009 84.0024
4007.3 -289.562 -269.638 0.96472 75.0536
4010.22 -293.086 -294.396 81.1867 71.9672
4013.13 -300.541 -290.496 133.75 124.559
4016.05 -277.86 -303.455 158.741 98.3456
4018.96 -331.964 -311.681 2.54572 62.9055
4021.88 -325.22 -331.815 27.4298 17.7078
4024.79 -338.26 -346.165 23.1479 42.6684
4027.71 -375.016 -332.251 77.4276 42.3053
4030.63 -283.477 -412.786 26.3404 39.2558
4033.54 -579.864 -387.945 13.9993 24.2287
4036.46 -300.493 -409.748 32.3463 26.4136
4039.37 -348.888 -304.833 32.8952 42.3415
4042.29 -265.117 -278.967 61.783 57.9772
4045.2 -222.897 -343.238 79.2535 58.1716
4048.12 -541.701 -439.426 33.4784 82.1535
4051.03 -553.679 -444.862 133.728 109.631
4053.95 -239.204 -373.145 161.685 142.005
4056.87 -326.552 -288.25 130.603 103.828
4059.78 -298.993 -282.399 19.1949 71.5397
4062.7 -221.651 -273.501 64.8213 94.3888
4065.61 -299.86 -383.139 199.15 102.807
4068.53 -627.906 -396.126 44.4498 124.961
4071.44 -260.613 -373.808 131.283 86.7207
4074.36 -232.905 -276.938 84.4299 69.6337
4077.27 -337.295 -300.017 -6.81124 39.1443
4080.19 -329.85 -355.118 39.8142 26.0227
4083.1 -398.21 -503.375 45.0652 42.0375
4086.02 -782.066 -554.134 41.2331 67.8612
4088.93 -482.127 -582.581 117.285 60.2317
4091.85 -483.55 -448.701 22.1769 49.8042
4094.76 -380.426 -383.428 9.95063 37.2576
4097.68 -286.31 -310.984 79.6452 45.3176
4100.59 -266.216 -294.124 46.357 82.604
4103.51 -329.847 -331.194 121.81 87.297
4106.42 -397.518 -382.746 93.7242 114.597
4109.33 -420.871 -570.331 128.258 82.6742
4112.25 -892.603 -599.195 26.0399 78.4679
4115.16 -484.111 -626.844 81.1055 70.4421
4118.08 -503.82 -503.215 104.181 124.94
4120.99 -521.715 -618.578 189.533 128.602
4123.91 -830.199 -623.765 92.0931 111.059
4126.82 -519.379 -603.652 51.5505 90.9482
4129.74 -461.376 -465.833 129.201 126.812
4132.65 -416.744 -449.253 199.685 155.51
4135.56 -469.637 -569.792 137.644 162.245
4138.48 -822.995 -545.626 149.407 168.018
4141.39 -344.244 -533.545 217.002 159.092
4144.31 -433.394 -420.578 110.868 149.308
4147.22 -484.096 -470.724 120.053 117.181
4150.14 -494.683 -599.915 120.623 135.507
4153.05 -820.965 -572.67 165.845 163.696
4155.96 -402.361 -696.725 204.621 199.455
4158.88 -866.848 -599.355 227.899 227.971
4161.79 -528.856 -647.206 251.392 214.088
4164.71 -545.913 -524.241 162.973 212.709
4167.62 -497.952 -506.527 223.761 213.842
4170.53 -475.716 -460.911 254.791 223.951
4173.45 -409.065 -466.554 193.301 190.059
4176.36 -514.88 -461.802 122.086 176.59
4179.27 -461.461 -476.317 214.382 167.985
4182.19 -452.609 -440.595 167.485 186.874
4185.1 -407.714 -443.362 178.754 183.986
4188.02 -469.764 -447.866 205.72 225.52
4190.93 -466.12 -453.916 292.086 248.714
4193.84 -425.864 -442.315 248.338 249.202
4196.76 -434.96 -434.015 207.183 246.16
4199.67 -441.221 -419.714 282.961 235.858
4202.58 -382.962 -581.355 217.43 223.137
4205.5 -919.881 -591.557 169.019 188.66
4208.41 -471.827 -631.904 179.531 211.576
4211.32 -504.005 -597.84 286.178 227.642
4214.24 -817.686 -610.562 217.217 255.92
4217.15 -509.995 -599.665 264.366 232.74
4220.06 -471.313 -606.51 216.636 234.638
4222.97 -838.222 -659.645 222.913 213.069
4225.89 -669.4 -614.467 199.657 203.032
4228.8 -335.779 -627.088 186.526 189.15
4231.71 -876.085 -543.979 181.266 180.542
4234.63 -420.074 -595.868 173.836 185.135
4237.54 -491.445 -593.672 200.302 184.797
4240.45 -869.498 -623.613 180.254 210.099
4243.36 -509.897 -734.99 249.74 226.542
4246.28 -825.574 -728.351 249.633 256.474
4249.19 -849.583 -699.706 270.049 250.099
4252.1 -423.963 -570.523 230.615 237.429
4255.02 -438.025 -442.731 211.624 216.103
4257.93 -466.207 -465.731 206.071 204.161
4260.84 -492.961 -659.49 194.788 201.783
4263.75 -1019.3 -662.13 204.49 229.343
4266.67 -474.126 -603.159 288.751 232.509
4269.58 -316.048 -397.34 204.286 242.137
4272.49 -401.845 -376.912 233.373 217.208
4275.4 -412.844 -591.808 213.965 252.403
4278.31 -960.735 -606.856 309.871 273.209
4281.23 -446.99 -609.352 295.792 284.099
4284.14 -420.332 -544.657 246.634 241.575
4287.05 -766.648 -532.833 182.298 230.995
4289.96 -411.518 -670.056 264.054 238.565
4292.87 -832 -648.009 269.343 270.431
4295.79 -700.509 -598.842 277.896 273.177
4298.7 -264.016 -396.877 272.292 260.116
4301.61 -226.105 -232.854 230.159 235.202
4304.52 -208.441 -196.4 203.157 219.676
4307.43 -154.654 -219.169 225.711 225.932
4310.35 -294.412 -408.46 248.927 256.737
4313.26 -776.313 -534.908 295.574 264.308
4316.17 -533.999 -641.029 248.421 233.3
4319.08 -612.775 -726.702 155.903 246.757
4321.99 -1033.33 -745.52 335.946 233.762
4324.9 -590.453 -751.37 209.439 259.207
4327.81 -630.325 -785.629 232.236 210.613
4330.73 -1136.11 -781.294 190.164 212.31
4333.64 -577.446 -787.745 214.53 220.059
4336.55 -649.678 -577.343 255.483 247.561
4339.46 -504.905 -552.727 272.669 271.379
4342.37 -503.597 -547.109 285.985 256.55
4345.28 -632.827 -628.798 210.997 212.523
4348.19 -749.971 -666.946 140.588 180.509
4351.1 -618.039 -687.358 189.943 154.104
4354.02 -694.065 -695.639 131.781 155.125
4356.93 -774.813 -735.626 143.651 182.037
4359.84 -737.999 -751.553 270.678 228.096
4362.75 -741.848 -960.182 269.96 250.032
4365.66 -1400.7 -988.67 209.457 204.379
4368.57 -823.465 -1165.84 133.72 180.082
4371.48 -1273.37 -949.692 197.068 196.401
4374.39 -752.241 -917.526 258.414 252.098
4377.3 -726.967 -886.223 300.813 255.247
4380.21 -1179.46 -809.705 206.514 242.679
4383.12 -522.688 -777.66 220.711 195.732
4386.03 -630.832 -623.206 159.971 180.77
4388.94 -716.096 -665.824 161.628 211.07
4391.85 -650.543 -682.338 311.609 258.229
4394.76 -680.373 -691.472 301.449 293.008
4397.67 -743.501 -885.708 265.967 259.981
4400.58 -1233.25 -1055.2 212.526 252.086
4403.49 -1188.84 -1218.35 277.766 248.388
4406.4 -1232.96 -1045.06 254.872 282.158
4409.31 -713.369 -1091.02 313.836 316.068
4412.22 -1326.74 -1126.02 379.495 371.464
4415.13 -1337.94 -1181.54 421.06 358.46
4418.04 -879.956 -1192.9 274.826 348.311
4420.95 -1360.81 -1025.3 349.047 341.924
4423.86 -835.135 -1014.4 401.9 358.93
4426.77 -847.254 -832.203 325.844 387.105
4429.68 -814.22 -989.866 433.571 411.53
4432.59 -1308.12 -1000.24 475.176 456.071
4435.5 -878.382 -1027.87 459.468 452.699
4438.41 -897.097 -900.645 423.455 418.486
4441.32 -926.455 -1119.92 372.537 420.007
4444.23 -1536.22 -1105.23 464.029 399.339
4447.14 -853.019 -1092.4 361.451 411.925
4450.05 -887.962 -1039.56 410.294 365.715
4452.96 -1377.7 -1027.7 325.401 372.968
4455.87 -817.441 -1011.28 383.208 330.98
4458.78 -838.706 -1025.17 284.331 334.958
4461.69 -1419.36 -1055.64 337.335 347.39
4464.6 -908.848 -1090.23 420.505 346.657
4467.5 -942.482 -940.446 282.132 327.696
4470.41 -970.007 -1172.35 280.451 309.367
4473.32 -1604.55 -1403.74 365.519 313.131
4476.23 -1636.67 -1421.4 293.423 336.326
4479.14 -1022.99 -1207.39 350.038 312.209
4482.05 -962.497 -1000.87 293.167 291.955
4484.96 -1017.12 -1010.21 232.66 242.979
4487.87 -1051.03 -1040.6 203.11 227.396
4490.77 -1053.67 -1028.74 246.418 257.861
4493.68 -981.522 -1047.71 324.054 270.686
4496.59 -1107.92 -1054 241.587 322.384
4499.5 -1072.56 -1103.53 401.512 320.897
4502.41 -1130.11 -1338.16 319.594 322.287
4505.32 -1811.81 -1354.28 245.754 276.52
4508.22 -1120.92 -1363.79 264.211 280.85
4511.13 -1158.66 -1133.72 332.585 304.106
4514.04 -1121.57 -1136.42 315.522 345.222
4516.95 -1129.04 -1136.83 387.558 344.943
4519.86 -1159.86 -1352.81 331.748 322.449
4522.76 -1769.51 -1305.32 248.039 297.392
4525.67 -986.589 -1460.5 312.389 295.575
4528.58 -1625.4 -1212.28 326.298 301.565
4531.49 -1024.85 -1216.5 266.007 283.662
4534.4 -999.24 -1011.53 258.682 258.721
4537.3 -1010.5 -1023.51 251.474 294.017
4540.21 -1060.78 -1071.22 371.894 324.951
4543.12 -1142.39 -1298.12 351.483 345.287
4546.03 -1691.19 -1316.39 312.484 370.467
4548.93 -1115.59 -1264.03 447.434 378.375
4551.84 -985.31 -1073.22 375.209 393.271
4554.75 -1118.75 -1058.6 357.171 387.355
4557.66 -1071.72 -1117.99 429.686 395.029
4560.56 -1163.5 -1355.99 398.229 373.92
4563.47 -1832.74 -1598.98 293.845 312.657
4566.38 -1800.69 -1573 245.896 302.423
4569.28 -1085.58 -1333.27 367.527 341.166
4572.19 -1113.54 -1123.61 410.076 372.332
4575.1 -1171.71 -1159.56 339.392 346.098
4578 -1193.44 -1161.29 288.825 315.723
4580.91 -1118.73 -1163.63 318.954 344.188
4583.82 -1178.73 -1369.84 424.786 358.313
4586.73 -1812.08 -1635.39 331.199 434.164
4589.63 -1915.35 -1608.06 546.506 461.18
4592.54 -1096.77 -1365.45 505.835 479.105
4595.44 -1084.22 -1134.11 384.973 422.088
4598.35 -1221.34 -1133.8 375.456 379.291
4601.26 -1095.84 -1131.63 377.445 385.344
4604.16 -1077.72 -1133.44 403.13 397.092
4607.07 -1226.77 -1209.3 410.7 412.037
4609.98 -1323.41 -1247.6 422.282 428.087
4612.88 -1192.63 -1243.98 451.281 412.337
4615.79 -1215.89 -1206.6 363.447 392.063
4618.69 -1211.29 -1219.01 361.46 356.446
4621.6 -1229.87 -1465.32 344.431 372.708
4624.51 -1954.82 -1495.55 412.233 400.107
4627.41 -1301.95 -1489.17 443.658 405.096
4630.32 -1210.73 -1261.15 359.396 383.33
4633.22 -1270.77 -1501.56 346.936 314.349
4636.13 -2023.19 -1495.74 236.716 305.327
4639.04 -1193.27 -1715.84 332.329 296.469
4641.94 -1931.04 -1463.64 320.361 341.948
4644.85 -1266.61 -1457.25 373.155 347.027
4647.75 -1174.11 -1449.41 347.565 367.273
4650.66 -1907.51 -1400.5 381.098 403.118
4653.56 -1119.87 -1421.24 480.69 447.211
4656.47 -1236.35 -1204.43 479.845 449.042
4659.37 -1257.06 -1469.11 386.589 428.047
4662.28 -1913.91 -1483.58 417.705 396.274
4665.18 -1279.78 -1464.74 384.527 374.414
4668.09 -1200.52 -1228.66 321.01 340.595
4670.99 -1205.67 -1206.57 316.247 345.238
4673.9 -1213.53 -1228.16 398.457 356.165
4676.8 -1265.28 -1243.56 353.791 381.637
4679.71 -1251.87 -1250.42 392.663 383.744
4682.61 -1234.1 -1466.06 404.778 401.741
4685.52 -1912.2 -1473.29 407.781 394.953
4688.42 -1273.58 -1502.84 372.3 398.292
4691.33 -1322.74 -1309.91 414.795 392.243
4694.23 -1333.42 -1334.6 389.635 364.695
4697.13 -1347.63 -1577.94 289.654 325.895
4700.04 -2052.78 -1552.8 298.395 304.094
4702.94 -1258 -1516.36 324.233 302.257
4705.85 -1238.29 -1191.14 284.143 326.191
4708.75 -1077.14 -1194.1 370.197 344.76
4711.66 -1266.89 -1255.21 379.941 370.661
4714.56 -1421.6 -1346.87 361.846 340.291
4717.46 -1352.13 -1376.08 279.087 306.068
4720.37 -1354.51 -1360.4 277.272 272.966
4723.27 -1374.55 -1338.7 262.538 287.827
4726.18 -1287.05 -1342.68 323.67 310.149
4729.08 -1366.44 -1317.4 344.239 343.748
4731.98 -1298.73 -1332.24 363.337 344.4
4734.89 -1331.56 -1297.97 325.624 318.619
4737.79 -1263.62 -1329.15 266.896 319.171
4740.69 -1392.26 -1576.82 364.992 307.807
4743.6 -2074.59 -1602.77 291.531 326.227
4746.5 -1341.47 -1577.7 322.157 336.445
4749.4 -1317.04 -1580.91 395.648 368.997
4752.31 -2084.2 -1831.01 389.185 363.037
4755.21 -2091.78 -2074.21 304.278 303.539
4758.11 -2046.64 -1828.51 217.155 235.41
4761.01 -1347.12 -1818.61 184.797 185.555
4763.92 -2062.05 -1579.17 154.714 221.726
4766.82 -1328.33 -1812.84 325.667 278.126
4769.72 -2048.13 -1571.52 353.996 375.255
4772.63 -1338.09 -1594.16 446.1 376.345
4775.53 -1396.27 -1372.61 328.938 415.375
4778.43 -1383.46 -1427.26 471.086 364.979
4781.33 -1502.05 -1669.55 294.913 346.058
4784.24 -2123.14 -1651.76 272.176 301.754
4787.14 -1330.08 -1606.54 338.174 266.647
4790.04 -1366.38 -1386.85 189.591 253.349
4792.94 -1464.07 -1417.18 232.283 238.234
4795.85 -1421.07 -1665.57 292.827 271.734
4798.75 -2111.56 -1649.64 290.092 307.776
4801.65 -1416.28 -1619.54 340.409 318.512
4804.55 -1330.77 -1370.94 325.036 307.485
4807.45 -1365.78 -1358.08 257.009 292.261
4810.35 -1377.7 -1405.3 294.736 284.565
4813.26 -1472.42 -1435.97 301.95 269.678
4816.16 -1457.8 -1462.26 212.348 267.462
4819.06 -1456.57 -1451.93 288.089 281.804
4821.96 -1441.43 -1698.31 344.976 323.328
4824.86 -2196.94 -1686.14 336.92 370.196
4827.76 -1420.04 -1674.6 428.693 341.601
4830.67 -1406.82 -1434.84 259.19 327.56
4833.57 -1477.67 -1437 294.798 264.669
4836.47 -1426.51 -1457 240.018 273.455
4839.37 -1466.81 -1632.21 285.55 304.208
4842.27 -2003.29 -1819.84 387.055 364.742
4845.17 -1989.41 -1959.81 421.62 364.58
4848.07 -1886.73 -1934.64 285.066 371.592
4850.97 -1927.77 -1876.69 408.089 344.446
4853.87 -1815.57 -1787.48 340.182 352.654
4856.77 -1619.09 -1623.79 309.69 323.944
4859.68 -1436.71 -1722.22 321.962 302.393
4862.58 -2110.87 -1667.19 275.526 299.456
4865.48 -1453.99 -1692.03 300.881 312.599
4868.38 -1511.21 -1750.91 361.391 320.654
4871.28 -2287.51 -1828.4 299.69 322.253
4874.18 -1686.48 -1913.2 305.677 306.539
4877.08 -1765.6 -1748.79 314.248 283.254
4879.98 -1794.3 -1799.44 229.836 266.41
4882.88 -1838.43 -1823.5 255.145 233.765
4885.78 -1837.77 -1816.4 216.316 262.877
4888.68 -1772.99 -1784.19 317.171 292.412
4891.58 -1741.81 -1800.2 343.75 353.518
4894.48 -1885.79 -1840.55 399.632 341.132
4897.38 -1894.06 -2169.57 280.014 349.546
4900.28 -2728.88 -2187.7 368.993 320.047
4903.18 -1940.17 -2228.55 311.134 309.239
4906.08 -2016.6 -2252.85 247.591 296.479
4908.98 -2801.78 -2531.19 330.711 287.54
4911.87 -2775.2 -2494.76 284.318 313.542
4914.77 -1907.31 -2189.57 325.596 296.343
4917.67 -1886.2 -1848.4 279.116 294.945
4920.57 -1751.68 -1781.99 280.122 288.566
4923.47 -1708.11 -2047.73 306.459 308.987
4926.37 -2683.41 -2112.36 340.381 305.814
4929.27 -1945.57 -2465.82 270.604 309.398
4932.17 -2768.49 -2495.55 317.21 272.731
4935.07 -2772.58 -2443.54 230.379 273.5
4937.97 -1789.55 -2126.95 272.911 265.156
4940.86 -1818.72 -1867.46 292.178 317.638
4943.76 -1994.12 -2235.84 387.825 319.638
4946.66 -2894.68 -2296.43 278.912 325.191
4949.56 -2000.5 -2574.22 308.838 280.832
4952.46 -2827.47 -2291.05 254.746 261.68
4955.36 -2045.2 -2261.98 221.457 238.253
4958.25 -1913.27 -1961.57 238.556 227.097
4961.15 -1926.24 -1931.52 221.279 270.166
4964.05 -1955.05 -1973.23 350.665 296.913
4966.95 -2038.4 -2013.5 318.794 330.649
4969.85 -2047.04 -2059.01 322.49 308.132
4972.74 -2091.6 -2367.55 283.113 300.808
4975.64 -2964.02 -2648.23 296.821 307.822
4978.54 -2889.07 -2610.68 343.532 283.181
4981.44 -1978.93 -2245.33 209.19 279.135
4984.33 -1867.97 -1916.47 284.682 225.681
4987.23 -1902.5 -1891.62 183.17 256.178
4990.13 -1904.39 -1937.51 300.681 233.85
4993.03 -2005.65 -1956.92 217.699 283.388
4995.92 -1960.73 -1994.08 331.783 293.312
4998.82 -2015.88 -1991.28 330.453 319.072
5001.72 -1997.23 -1968.02 294.979 307.21
5004.61 -1890.94 -1947.01 296.198 300.458
5007.51 -1952.87 -2188.93 310.197 281.257
5010.41 -2722.97 -2182.17 237.378 281.058
5013.3 -1870.66 -2149.29 295.601 238.194
5016.2 -1854.25 -1854.66 181.605 243.483
5019.1 -1839.06 -2159.29 253.243 240.358
5021.99 -2784.55 -2164.87 286.227 318.422
5024.89 -1871.01 -2209.96 415.796 346.784
5027.79 -1974.33 -1946.21 338.328 345.955
5030.68 -1993.28 -1966.08 283.742 284.239
5033.58 -1930.62 -2061.75 230.645 268.579
5036.48 -2261.35 -2203.18 291.351 264.147
5039.37 -2417.57 -2239.56 270.445 264.784
5042.27 -2039.77 -2144.08 232.558 232.279
5045.16 -1974.89 -1988.37 193.834 232.862
5048.06 -1950.46 -1973.6 272.194 219.802
5050.96 -1995.46 -2003.69 193.38 246.597
5053.85 -2065.14 -2042.89 274.218 266.057
5056.75 -2068.09 -2396.65 330.573 299.617
5059.64 -3056.72 -2401.85 294.06 310.5
5062.54 -2080.74 -2428.27 306.866 292.411
5065.43 -2147.36 -2084.21 276.307 286.791
5068.33 -2024.53 -2076.52 277.2 273.643
5071.22 -2057.66 -2064.69 267.422 270.129
5074.12 -2111.89 -2364.12 265.766 265.254
5077.01 -2922.82 -2357.94 262.573 256.093
5079.91 -2039.12 -2610.36 239.939 248.751
5082.8 -2869.13 -2579.16 243.741 254.765
5085.7 -2829.22 -2562.38 280.616 262.152
5088.59 -1988.77 -2298.84 262.099 285.999
5091.49 -2078.52 -2069.9 315.282 297.225
5094.38 -2142.4 -2120.67 314.292 318.922
5097.28 -2141.08 -2105.6 327.193 325.728
5100.17 -2033.32 -2073.48 335.699 293.53
5103.06 -2046.05 -1998.02 217.697 272.143
5105.96 -1914.69 -2023.68 263.034 259.339
5108.85 -2110.3 -2013.1 297.284 310.248
5111.75 -2014.32 -2071 370.425 333.105
5114.64 -2088.37 -2387.68 331.607 336.586
5117.53 -3060.35 -2457.6 307.725 335.87
5120.43 -2224.08 -2460.95 368.279 311.976
5123.32 -2098.4 -2153.95 259.925 303.475
5126.22 -2139.36 -2049.09 282.222 296.661
5129.11 -1909.51 -2332.5 347.834 301.213
5132 -2948.63 -2310.14 273.581 275.992
5134.9 -2072.28 -2348.3 206.561 254.305
5137.79 -2023.98 -2016.61 282.774 250.588
5140.68 -1953.57 -1987.52 262.43 279.502
5143.58 -1985 -1996.91 293.302 284.979
5146.47 -2052.16 -1999.5 299.205 311.847
5149.36 -1961.33 -2005.69 343.035 321.643
5152.25 -2003.58 -2281.01 322.689 313.895
5155.15 -2878.11 -2326.91 275.962 323.934
5158.04 -2099.03 -2376.54 373.151 333.014
5160.93 -2152.49 -2110.38 349.928 346.11
5163.83 -2079.62 -2275.34 315.252 338.461
5166.72 -2593.92 -2380.94 350.202 321.996
5169.61 -2469.28 -2216.33 300.533 314.417
5172.5 -1585.79 -1901.81 292.514 310.815
5175.39 -1650.34 -1686.52 339.396 324.77
5178.29 -1823.42 -2016.59 342.4 322.187
5181.18 -2576.02 -2016.85 284.765 306.615
5184.07 -1651.11 -2230.67 292.68 276.47
5186.96 -2464.87 -2235.52 251.965 248.761
5189.85 -2590.59 -2329.59 201.638 254.476
5192.75 -1933.3 -2134.37 309.825 284.51
5195.64 -1879.21 -1932.21 342.069 328.784
5198.53 -1984.13 -1976.8 334.459 345.882
5201.42 -2067.06 -1971.38 361.119 365.83
5204.31 -1862.94 -2226.61 401.913 363.076
5207.2 -2749.81 -2200.29 326.195 362.418
5210.09 -1988.11 -2261.93 359.147 332.873
5212.99 -2047.85 -2336.14 313.278 342.348
5215.88 -2972.47 -2347.14 354.62 330.435
5218.77 -2021.1 -2396.04 323.408 333.94
5221.66 -2194.56 -2124.29 323.794 330.117
5224.55 -2157.2 -2149.7 343.149 336.562
5227.44 -2097.34 -2081.27 342.742 296.101
5230.33 -1989.26 -2337.45 202.413 255.34
5233.22 -2925.75 -2632.74 220.864 225.187
5236.11 -2983.2 -2680.95 252.286 257.459
5239 -2133.89 -2727.72 299.228 281.586
5241.89 -3066.07 -2460.77 293.245 322.055
5244.78 -2182.36 -2469.73 373.692 321.154
5247.67 -2160.76 -2175.98 296.524 332.788
5250.56 -2184.83 -2446.84 328.149 307.735
5253.45 -2994.94 -2396.05 298.532 317.973
5256.34 -2008.37 -2381.76 327.238 318.392
5259.23 -2141.98 -2094.82 329.405 296.463
5262.12 -2134.12 -2078.08 232.745 297.557
5265.01 -1958.12 -1994.06 330.522 313.274
5267.9 -1889.95 -1922.21 376.557 330.725
5270.79 -1918.57 -1888.9 285.097 357.99
5273.68 -1858.2 -1953.5 412.317 343.676
5276.57 -2083.73 -2003.26 333.615 382.746
5279.46 -2067.85 -2060.51 402.306 346.756
5282.35 -2029.94 -2050.32 304.348 361.576
5285.23 -2053.17 -2102.22 378.074 350.31
5288.12 -2223.54 -2161.88 368.507 359.21
5291.01 -2208.94 -2530.18 331.048 371.618
5293.9 -3158.08 -2847.67 415.299 398.088
5296.79 -3175.99 -3161.21 447.917 403.926
5299.68 -3149.56 -2844.72 348.563 386.904
5302.57 -2208.6 -2528.2 364.231 324.125
5305.45 -2226.44 -2236.21 259.581 286.478
5308.34 -2273.6 -2280.03 235.622 242.597
5311.23 -2340.06 -2306.23 232.588 146.312
5314.12 -2305.02 -2316.86 -29.2753 17.6727
5317.01 -2305.49 -2269.66 -150.295 -107.457
5319.89 -2198.46 -2241.49 -142.801 -86.9438
5322.78 -2220.53 -2167.36 32.2645 39.9581
5325.67 -2083.1 -2151.72 230.411 56.7981
5328.56 -2151.52 -2109.67 -92.2812 -34.1142
5331.45 -2094.39 -2127.16 -240.473 -178.071
5334.33 -2135.56 -2145.6 -201.459 -249.448
5337.22 -2206.83 -2149.12 -306.411 -221.981
5340.11 -2104.97 -2436.74 -158.072 -199.371
5342.99 -2998.42 -2733.96 -133.631 -160.84
5345.88 -3098.5 -2747.93 -190.818 -151.76
5348.77 -2146.86 -2484 -130.831 -165.149
5351.65 -2206.65 -2224.84 -173.797 -178.424
5354.54 -2321.01 -2297.35 -230.644 -212.865
5357.43 -2364.38 -2348.9 -234.153 -185.335
5360.31 -2361.31 -2670 -91.2068 -33.218
5363.2 -3284.3 -2658.19 225.706 216.364
5366.09 -2328.95 -2592.37 514.593 365.301
5368.97 -2163.86 -2213.62 355.603 409.405
5371.86 -2148.06 -2160.27 358.018 365.725
5374.75 -2168.91 -2155.46 383.555 380.37
5377.63 -2149.43 -2174.17 399.538 393.843
5380.52 -2204.19 -2240.73 398.436 358.052
5383.4 -2368.56 -2307.59 276.182 338.026
5386.29 -2350.01 -2324.92 339.46 345.213
5389.17 -2256.2 -2586.41 419.998 345.827
5392.06 -3153.03 -2542.35 278.024 304.856
5394.95 -2217.83 -2517.79 216.548 270.696
5397.83 -2182.51 -2174.5 317.516 269.04
5400.72 -2123.17 -2460.63 273.056 289.449
5403.6 -3076.21 -2446.68 277.774 273.129
5406.49 -2140.66 -2692.09 268.557 293.974
5409.37 -2859.41 -2365.87 335.592 322.819
5412.26 -2097.54 -2374.39 364.309 359.793
5415.14 -2166.22 -2176.23 379.477 336.409
5418.03 -2264.93 -2203.73 265.443 338.337
5420.91 -2180.02 -2199.92 370.091 330.235
5423.79 -2154.79 -2187.95 355.171 359.791
5426.68 -2229.02 -2544.77 354.111 341.409
5429.56 -3250.51 -2569.76 314.944 344.649
5432.45 -2229.75 -2539.43 364.891 318.468
5435.33 -2138.02 -2213.66 275.568 340.041
5438.22 -2273.2 -2268.09 379.664 326.353
5441.1 -2393.04 -2305.17 323.827 301.147
5443.98 -2249.29 -2272.3 199.951 257.494
5446.87 -2174.58 -2249.42 248.702 245.425
5449.75 -2324.4 -2247.77 287.622 250.148
5452.63 -2244.31 -2271.36 214.121 324.222
5455.52 -2245.36 -2542.68 470.924 325.155
5458.4 -3138.37 -2585.89 290.42 363.836
5461.28 -2373.94 -2582.17 330.163 282.957
5464.17 -2234.2 -2268.37 228.289 331.808
5467.05 -2196.96 -2596.84 436.971 334.53
5469.93 -3359.38 -2618.74 338.331 375.589
5472.82 -2299.89 -2650.65 351.464 353.226
5475.7 -2292.67 -2245.11 369.882 377.656
5478.58 -2142.77 -2236.72 411.622 393.234
5481.46 -2274.72 -2256.53 398.197 384.684
5484.35 -2352.1 -2305.87 344.233 345.804
5487.23 -2290.79 -2335.17 294.981 298.499
5490.11 -2362.6 -2302.46 256.284 295.684
5492.99 -2254 -2314.22 335.787 296.897
5495.87 -2326.06 -2317.01 298.619 355.097
5498.76 -2370.98 -2343.97 430.886 380.138
5501.64 -2334.88 -2359.94 410.909 369.081
5504.52 -2373.97 -2309.9 265.448 305.22
5507.4 -2220.86 -2621.37 239.304 273.444
5510.28 -3269.29 -2904.29 315.582 320.239
5513.17 -3222.74 -3300.96 405.832 370.134
5516.05 -3410.86 -2980.81 388.99 367.817
5518.93 -2308.83 -2704.06 308.629 336.367
5521.81 -2392.47 -2363.64 311.482 339.545
5524.69 -2389.61 -2669.95 398.524 364.316
5527.57 -3227.78 -2652.32 382.941 361.464
5530.45 -2339.57 -2972.01 302.928 360.36
5533.33 -3348.67 -2670.75 395.21 359.135
5536.21 -2324.01 -2670.39 379.268 381.469
5539.09 -2338.48 -2336.33 369.93 360.905
5541.97 -2346.49 -2325.66 333.516 385.274
5544.85 -2292.02 -2318.76 452.377 366.664
5547.73 -2317.77 -2300.91 314.1 356.944
5550.61 -2292.94 -2311.69 304.354 318.112
5553.49 -2324.37 -2654.34 335.882 330.642
5556.37 -3345.71 -2674.55 351.69 336.199
5559.25 -2353.57 -2672.54 321.025 367.355
5562.13 -2318.35 -2337.21 429.351 348.895
5565.01 -2339.71 -2315.05 296.307 365.792
5567.89 -2287.1 -2292.99 371.718 449.456
5570.77 -2252.16 -2265.37 680.342 746.517
5573.65 -2256.85 -2264 1187.49 1206.53
5576.53 -2282.99 -2262.63 1751.76 1416.02
5579.41 -2248.04 -2661.31 1308.79 1090.98
5582.29 -3452.91 -2659.87 212.383 412.703
5585.17 -2278.66 -2630.2 -283.068 -188.393
5588.05 -2159.02 -2562.74 -494.496 -396.181
5590.93 -3250.54 -2848.48 -410.979 -328.596
5593.8 -3135.89 -2879.4 -80.3149 -176.619
5596.68 -2251.77 -2857.92 -38.5645 -41.9403
5599.56 -3186.1 -2561.57 -6.94146 -3.48273
5602.44 -2246.83 -2527.3 35.0578 69.8467
5605.32 -2148.97 -2243.66 181.424 134.42
5608.2 -2335.16 -2272.36 186.778 231.471
5611.07 -2332.94 -2322.3 326.211 270.97
5613.95 -2298.8 -2292 299.922 322.51
5616.83 -2244.27 -2268.81 341.398 295.742
5619.71 -2263.37 -2269.62 245.908 314.255
5622.58 -2301.22 -2288.58 355.46 330.983
5625.46 -2301.15 -2324.57 391.581 372.326
5628.34 -2371.35 -2356.41 369.937 423.376
5631.22 -2396.74 -2375.77 508.609 422.212
5634.09 -2359.23 -2343.92 388.09 447.241
5636.97 -2275.79 -2631.64 445.025 438.152
5639.85 -3259.92 -2631.75 481.342 421.334
5642.72 -2359.53 -2653.96 337.635 425.54
5645.6 -2342.43 -2725.95 457.641 413.256
5648.48 -3475.87 -2721.27 444.492 430.721
5651.35 -2345.52 -2702.53 390.03 399.552
5654.23 -2286.19 -2627.52 364.134 432.228
5657.11 -3250.85 -2566.15 542.52 496.203
5659.98 -2161.39 -2541.58 581.956 537.039
5662.86 -2212.51 -2223.61 486.641 488.149
5665.73 -2296.94 -2247.2 395.851 444.286
5668.61 -2232.14 -2279.81 450.365 435.22
5671.49 -2310.34 -2287.56 459.444 468.069
5674.36 -2320.19 -2324.76 494.398 458.136
5677.24 -2343.76 -2325.99 420.565 459.558
5680.11 -2314.02 -2331.86 463.711 423.339
5682.99 -2337.8 -2342.29 385.742 437.473
5685.86 -2375.06 -2324.21 462.966 433.702
5688.74 -2259.77 -2294.27 452.4 432.032
5691.61 -2247.98 -2274.77 380.729 400.792
5694.49 -2316.55 -2294.93 369.247 415.518
5697.36 -2320.26 -2309.05 496.577 424.171
5700.24 -2290.34 -2311.5 406.69 442.225
5703.11 -2323.89 -2291.04 423.408 412.976
5705.99 -2258.89 -2234.54 408.83 402.068
5708.86 -2120.84 -2176.61 373.966 391.054
5711.74 -2150.12 -2159.45 390.366 407.929
5714.61 -2207.39 -2187.2 459.453 437.154
5717.48 -2204.09 -2240.49 461.642 484.413
5720.36 -2309.98 -2271.78 532.144 504.627
5723.23 -2301.26 -2634.65 520.095 484.399
5726.1 -3292.71 -2924.03 400.959 478.995
5728.98 -3178.11 -2920.75 515.93 442.201
5731.85 -2291.44 -2577.05 409.714 449.11
5734.73 -2261.59 -2634.9 421.687 396.099
5737.6 -3351.68 -2949.65 356.897 432.037
5740.47 -3235.69 -2953.8 517.528 466.735
5743.34 -2274.04 -2614.71 525.78 463.765
5746.22 -2334.38 -2317.59 347.985 438.64
5749.09 -2344.34 -2317.69 442.153 429.091
5751.96 -2274.35 -2625.16 497.134 474.865
5754.84 -3256.8 -2599.57 485.307 479.877
5757.71 -2267.57 -2899.84 457.19 448.346
5760.58 -3175.16 -2540.7 402.54 423.353
5763.45 -2179.39 -2519.31 410.33 441.377
5766.32 -2203.38 -2212.33 511.262 489.414
5769.2 -2254.21 -2243.57 546.649 534.267
5772.07 -2273.13 -2252.44 544.888 497.655
5774.94 -2229.98 -2248.27 401.426 450.094
5777.81 -2241.7 -2239.88 403.967 408.18
5780.68 -2247.94 -2524.25 419.148 450.977
5783.56 -3083.12 -2517.17 529.818 476.884
5786.43 -2220.46 -2525.46 481.687 505.751
5789.3 -2272.79 -2536.67 505.748 502.076
5792.17 -3116.76 -2532.23 518.791 489.614
5795.04 -2207.13 -2531.75 444.303 484.688
5797.91 -2271.36 -2254.17 490.969 485.202
5800.78 -2284.01 -2291.84 520.335 486.865
5803.65 -2320.14 -2263.27 449.29 477.595
5806.52 -2185.66 -2231.4 463.161 454.418
5809.39 -2188.39 -2519.56 450.805 470.252
5812.26 -3184.63 -2556.76 496.791 472.497
5815.13 -2297.25 -2611.19 469.895 462.449
5818 -2351.68 -2315.42 420.66 436.475
5820.87 -2297.33 -2604.9 418.871 455.821
5823.74 -3165.69 -2910.55 527.932 478.56
5826.61 -3268.62 -2899.64 488.876 483.119
5829.48 -2264.62 -2611.34 432.55 494.598
5832.35 -2300.79 -2284.9 562.369 487.663
5835.22 -2289.29 -2612.61 468.069 465.46
5838.09 -3247.76 -2583.89 365.943 430.679
5840.96 -2214.61 -2594.89 458.026 455.771
5843.83 -2322.29 -2291.36 543.343 486.164
5846.7 -2337.19 -2318.47 457.122 492.157
5849.57 -2295.92 -2313.64 476.006 485.61
5852.44 -2307.8 -2564.47 523.703 493.079
5855.3 -3089.69 -2502.77 479.527 511.527
5858.17 -2110.82 -2819.07 531.349 506.768
5861.04 -3256.7 -2515.42 509.427 549.577
5863.91 -2178.73 -2567.9 607.955 557.548
5866.78 -2268.26 -2247.37 555.262 574.87
5869.65 -2295.11 -2563.39 561.392 546.983
5872.51 -3126.78 -2544.14 524.295 514.196
5875.38 -2210.51 -2527.23 456.901 491.1
5878.25 -2244.41 -2236.04 492.104 497.507
5881.12 -2253.21 -2213.2 543.515 609.848
5883.98 -2141.97 -2174.16 793.923 772.082
5886.85 -2127.3 -2418.35 978.807 1017.18
5889.72 -2985.78 -2370.94 1278.82 1122.45
5892.59 -1999.76 -2473.13 1109.73 1090.03
5895.45 -2433.85 -2287.02 881.555 852.556
5898.32 -2427.46 -2506.31 566.386 541.737
5901.19 -2657.61 -2536.11 177.27 288.327
5904.05 -2523.26 -2636.99 121.327 113.024
5906.92 -2730.11 -2670.95 40.4751 77.4397
5909.79 -2759.48 -2742.56 70.5171 66.8932
5912.65 -2738.1 -2747.46 89.6873 121.609
5915.52 -2744.79 -2733.75 204.622 147.626
5918.38 -2718.38 -2721.53 148.568 221.525
5921.25 -2701.44 -2725.48 311.386 279.72
5924.12 -2756.62 -2765.24 379.205 384.262
5926.98 -2837.65 -2795.57 462.196 463.935
5929.85 -2792.44 -2783.18 550.404 539.932
5932.71 -2719.45 -2784.83 607.195 551.148
5935.58 -2842.61 -2788.8 495.846 490.476
5938.44 -2804.33 -2791.33 368.386 418.939
5941.31 -2727.06 -2752.44 392.585 439.358
5944.17 -2725.93 -2709.53 557.103 489.099
5947.04 -2675.61 -2712.1 517.609 517.639
5949.9 -2734.75 -2730.97 478.206 494.094
5952.77 -2782.54 -2765.78 486.467 509.805
5955.63 -2780.04 -2793.37 564.741 494.434
5958.5 -2817.53 -2771.85 432.093 478.543
5961.36 -2717.99 -2759.22 438.795 415.519
5964.22 -2742.14 -2724.37 375.669 433.735
5967.09 -2712.97 -2736.23 486.741 450.932
5969.95 -2753.58 -2743.1 490.385 545.181
5972.82 -2762.73 -2750.9 658.417 563.521
5975.68 -2736.39 -2730.6 541.762 557.475
5978.54 -2692.69 -2744.21 472.248 472.213
5981.41 -2803.55 -2735.86 402.629 421.633
5984.27 -2711.34 -2719.74 390.023 437.581
5987.13 -2644.32 -2681.27 520.09 465.595
5990 -2688.14 -2683.77 486.673 519.246
5992.86 -2718.84 -2687.76 550.975 498.103
5995.72 -2656.3 -2688.77 456.661 482.346
5998.58 -2691.18 -2693.31 439.401 450.814
6001.45 -2732.44 -2706.19 456.38 478.046
6004.31 -2694.95 -2701.83 538.356 468.517
6007.17 -2678.12 -2659.88 410.816 487.088
6010.03 -2606.57 -2663.6 512.092 461.616
6012.89 -2706.13 -2665.02 461.94 474.767
6015.76 -2682.36 -2658.18 450.269 482.787
6018.62 -2586.07 -2626.23 536.153 483.307
6021.48 -2610.25 -2579.09 463.499 516.501
6024.34 -2540.96 -2562.02 549.851 504.195
6027.2 -2534.85 -2588.34 499.234 517.923
6030.06 -2689.21 -2596.84 504.683 536.626
6032.93 -2566.44 -2675.05 605.962 543.226
6035.79 -2769.49 -2691.27 519.032 543.391
6038.65 -2737.88 -2724.27 505.179 508.254
6041.51 -2665.45 -2726.14 500.551 483.59
6044.37 -2775.1 -2717.41 445.04 486.096
6047.23 -2711.69 -2746.85 512.697 480.462
6050.09 -2753.75 -2731.84 483.649 508.347
6052.95 -2730.08 -2669.88 528.695 489.177
6055.81 -2525.81 -2615.72 455.186 510.186
6058.67 -2591.29 -2612.14 546.677 520.403
6061.53 -2719.32 -2653 559.344 545.908
6064.39 -2648.38 -2654.97 531.701 537.964
6067.25 -2597.21 -2648.9 522.846 538.176
6070.11 -2701.12 -2661.98 559.98 502.991
6072.97 -2687.6 -2702.91 426.148 504.331
6075.83 -2720.02 -2754.82 526.865 454.88
6078.69 -2856.83 -2616.57 411.626 516.092
6081.55 -2272.87 -2590.15 609.784 551.449
6084.4 -2640.75 -2540.87 632.937 593.176
6087.26 -2708.97 -2657.92 536.806 577.901
6090.12 -2624.03 -2650.09 563.959 553.529
6092.98 -2617.26 -2624.42 559.822 574.535
6095.84 -2631.96 -2624.69 599.823 565.417
6098.7 -2624.86 -2631.68 536.607 590.226
6101.55 -2638.21 -2590.87 634.248 573.678
6104.41 -2509.54 -2595.95 550.178 595.711
6107.27 -2640.1 -2573.28 602.708 599.734
6110.13 -2570.2 -2622.78 646.316 596.908
6112.99 -2658.04 -2619.19 541.701 562.735
6115.84 -2629.32 -2634.62 500.188 547.493
6118.7 -2616.5 -2623.94 600.591 592.304
6121.56 -2626.01 -2617.46 676.132 621.131
6124.42 -2609.87 -2588 586.671 580.439
6127.27 -2528.1 -2559.93 478.513 521.093
6130.13 -2541.83 -2530.12 498.094 507.598
6132.99 -2520.42 -2525.55 546.185 523.92
6135.84 -2514.41 -2542.08 527.48 591.901
6138.7 -2591.4 -2552.27 702.038 626.4
6141.55 -2551.01 -2555.71 649.681 660.018
6144.41 -2524.72 -2551.33 628.336 636.779
6147.27 -2578.27 -2554.16 632.319 634.236
6150.12 -2559.49 -2564.98 642.051 591.639
6152.98 -2557.19 -2566.45 500.546 590.717
6155.83 -2582.66 -2541.35 629.555 527.73
6158.69 -2484.2 -2491.99 453.089 522.861
6161.55 -2409.1 -2435.5 485.938 536.013
6164.4 -2413.2 -2417.1 669.012 584.548
6167.26 -2429 -2407.72 598.695 652.412
6170.11 -2380.97 -2390.82 689.53 633.744
6172.97 -2362.47 -2408.25 613.009 653.833
6175.82 -2481.32 -2454.7 658.96 624.592
6178.67 -2520.31 -2518.48 601.807 595.429
6181.53 -2553.82 -2509.87 525.518 568.763
6184.38 -2455.48 -2494.7 578.964 553.658
6187.24 -2474.79 -2477.23 556.491 542.706
6190.09 -2501.44 -2474.69 492.662 500.759
6192.95 -2447.83 -2477.5 453.124 521.89
6195.8 -2483.22 -2466.64 619.885 552.878
6198.65 -2468.86 -2511.25 585.625 607.868
6201.51 -2581.65 -2512.91 618.094 605.826
6204.36 -2488.22 -2564.88 613.758 627.643
6207.21 -2624.76 -2541.95 651.078 595.04
6210.07 -2512.88 -2519.44 520.285 621.976
6212.92 -2420.68 -2478.95 694.566 609.185
6215.77 -2503.3 -2478.03 612.705 604.658
6218.63 -2510.1 -2484 506.703 588.416
6221.48 -2438.59 -2485.64 645.84 566.867
6224.33 -2508.23 -2451.51 548.059 613.884
6227.18 -2407.71 -2445.74 647.753 625.233
6230.03 -2421.29 -2385.35 679.887 715.655
6232.89 -2327.06 -2407.47 819.324 789.917
6235.74 -2474.06 -2413.71 870.539 818.077
6238.59 -2440 -2472.96 764.367 763.826
6241.44 -2504.83 -2461.65 656.571 661.888
6244.29 -2440.11 -2456.54 564.727 572.409
6247.15 -2424.67 -2415.67 495.93 511.67
6250 -2382.24 -2385.68 474.353 503.482
6252.85 -2350.14 -2328.32 540.164 534.126
6255.7 -2252.57 -2324.7 587.862 546.159
6258.55 -2371.38 -2328.72 510.451 585.711
6261.4 -2362.22 -2385.45 658.821 596.095
6264.25 -2422.74 -2385.74 619.014 599.278
6267.1 -2372.25 -2378.21 519.997 579.084
6269.95 -2339.64 -2384.61 598.242 571.084
6272.8 -2441.94 -2365.23 595.012 563.573
6275.65 -2314.11 -2371.6 497.465 510.031
6278.5 -2358.76 -2336.14 437.616 501.18
6281.35 -2335.54 -2341.95 568.46 552.605
6284.2 -2331.55 -2362.59 651.74 629.592
6287.05 -2420.68 -2370.02 668.577 629.933
6289.9 -2357.84 -2382.63 569.482 864.482
6292.75 -2369.37 -2339.41 1355.39 1405.59
6295.6 -2291.01 -2299.94 2291.89 2339.35
6298.45 -2239.44 -2204.64 3370.78 2841.67
6301.3 -2083.46 -2218.42 2862.33 2529.96
6304.14 -2332.35 -2227.31 1356.76 1415.64
6306.99 -2266.11 -2282 27.8282 272.262
6309.84 -2247.53 -2257.84 -567.803 -517.974
6312.69 -2259.89 -2293.12 -1013.95 -911.387
6315.54 -2371.93 -2311.83 -1152.41 -1007.21
6318.39 -2303.68 -2319.49 -855.265 -785.129
6321.23 -2282.85 -2299.88 -347.713 -423.559
6324.08 -2313.12 -2339.72 -67.6988 -40.3383
6326.93 -2423.2 -2371.26 294.397 208.149
6329.78 -2377.47 -2375.43 397.749 372.788
6332.62 -2325.63 -2396.49 426.219 409.344
6335.47 -2486.37 -2398.15 404.065 436.873
6338.32 -2382.45 -2431.05 480.335 547.971
6341.16 -2424.32 -2393.55 759.513 607.118
6344.01 -2373.89 -2375.32 581.506 669.085
6346.86 -2327.75 -2354.16 666.235 644.388
6349.7 -2360.82 -2357.83 685.424 733.539
6352.55 -2384.92 -2382.65 848.959 764.237
6355.4 -2402.22 -2361.5 758.329 953.535
6358.24 -2297.35 -2314.7 1253.32 1144.14
6361.09 -2244.53 -2264.88 1420.78 1355.06
6363.93 -2252.77 -2281.98 1391.1 1195.42
6366.78 -2348.65 -2325.36 774.387 875.979
6369.63 -2374.65 -2345.9 462.452 498.481
6372.47 -2314.38 -2357.32 258.603 329.908
6375.32 -2382.93 -2353.56 268.67 272.968
6378.16 -2363.37 -2388.51 291.63 287.988
6381.01 -2419.22 -2374.17 303.664 299.593
6383.85 -2339.92 -2373.29 303.483 371.57
6386.69 -2360.73 -2357.04 507.561 463.995
6389.54 -2370.47 -2347.41 580.941 561.803
6392.38 -2311.04 -2330.78 596.907 595.867
6395.23 -2310.83 -2326.96 609.752 630.553
6398.07 -2359 -2329.8 685.001 704.169
6400.92 -2319.55 -2341.66 817.754 757.856
6403.76 -2346.44 -2320.04 770.812 750.632
6406.6 -2294.14 -2298.32 663.33 691.018
6409.45 -2254.39 -2260.04 638.912 658.138
6412.29 -2231.58 -2250.9 672.171 676.699
6415.13 -2266.74 -2265.88 719.013 680.731
6417.98 -2299.31 -2275.95 651.007 679.312
6420.82 -2261.8 -2284.46 667.916 717.627
6423.66 -2292.26 -2276.24 833.958 727.12
6426.5 -2274.66 -2298.94 679.486 730.23
6429.35 -2329.9 -2295.85 677.246 708.39
6432.19 -2282.98 -2274.26 768.437 735.795
6435.03 -2209.89 -2273.75 761.702 789.585
6437.87 -2328.38 -2253.19 838.616 794.286
6440.72 -2221.3 -2286.51 782.542 806.039
6443.56 -2309.83 -2278.02 796.959 825.114
6446.4 -2302.92 -2327.95 895.841 803.044
6449.24 -2371.11 -2284.92 716.334 777.972
6452.08 -2180.72 -2267.49 721.741 744.98
6454.92 -2250.63 -2206.71 796.867 800.215
6457.76 -2188.77 -2194.63 882.036 818.769
6460.6 -2144.47 -2175.42 777.403 889.717
6463.44 -2193.01 -2180.73 1009.71 925.435
6466.29 -2204.7 -2223.57 989.189 971.025
6469.13 -2273.02 -2232.47 914.174 892.691
6471.97 -2219.69 -2243.12 774.709 814.837
6474.81 -2236.66 -2252.64 755.629 736.496
6477.65 -2301.56 -2264.54 679.151 703.35
6480.49 -2255.39 -2273.9 675.269 667.67
6483.33 -2264.76 -2270.13 648.589 665.305
6486.17 -2290.24 -2280.98 672.056 684.411
6489 -2287.95 -2275.61 732.587 727.853
6491.84 -2248.64 -2211.65 778.916 868.113
6494.68 -2098.36 -2149.47 1092.84 967.367
6497.52 -2101.41 -2119.31 1030.35 1072.24
6500.36 -2158.15 -2148.17 1093.52 1012.52
6503.2 -2184.93 -2177.04 913.689 955.609
6506.04 -2188.02 -2196.72 859.615 832.824
6508.88 -2217.2 -2215.82 725.167 699.72
6511.71 -2242.23 -2266.9 514.377 599.374
6514.55 -2341.27 -2268.58 558.577 611.83
6517.39 -2222.24 -2269.05 762.535 731.505
6520.23 -2243.64 -2243.94 873.401 839.463
6523.07 -2265.95 -2246.31 882.453 875.176
6525.9 -2229.33 -2232.15 869.675 940.521
6528.74 -2201.16 -2257.03 1069.43 947.779
6531.58 -2340.6 -2254.65 904.227 960.623
6534.41 -2222.19 -2241.99 908.207 902.84
6537.25 -2163.18 -2197.81 896.086 887.866
6540.09 -2208.06 -2205.47 859.305 875.122
6542.92 -2245.19 -2258.03 869.975 885.933
6545.76 -2320.84 -2227.14 928.52 907.406
6548.6 -2115.38 -2175.37 923.724 935.427
6551.43 -2089.89 -2054.97 954.038 961.928
6554.27 -1959.64 -1943.69 1008.02 956.326
6557.11 -1781.53 -1747.39 906.919 910.912
6559.94 -1501 -1507.91 817.794 862.169
6562.78 -1241.2 -1367.59 861.795 825.673
6565.61 -1360.55 -1376.7 797.432 811.879
6568.45 -1528.34 -1551.22 776.412 835.439
6571.28 -1764.76 -1677.63 932.473 867.263
6574.12 -1739.79 -1832.9 892.904 929.438
6576.95 -1994.16 -1925.92 962.939 909.822
6579.79 -2043.81 -2049.31 873.622 858.624
6582.62 -2109.96 -2106.84 739.312 813.407
6585.46 -2166.75 -2138.23 827.287 812.799
6588.29 -2137.97 -2133.51 871.798 848.005
6591.12 -2095.81 -2174.99 844.93 878.328
6593.96 -2291.21 -2185.26 918.254 960.26
6596.79 -2168.75 -2215.96 1117.6 1006.46
6599.62 -2187.92 -2170.71 983.532 1011.16
6602.46 -2155.46 -2170.94 932.363 958.278
6605.29 -2169.44 -2172.27 958.938 969.798
6608.12 -2191.92 -2183.86 1018.09 946.436
6610.96 -2190.22 -2180.48 862.274 950.616
6613.79 -2159.29 -2169.13 971.48 916.661
6616.62 -2157.89 -2185.82 916.229 910.902
6619.45 -2240.29 -2185.16 844.998 939.995
6622.29 -2157.3 -2185.37 1058.76 975.725
6625.12 -2158.53 -2183.8 1023.42 1070.56
6627.95 -2235.57 -2186.19 1129.51 1088.47
6630.78 -2164.49 -2168.8 1112.48 1122.69
6633.61 -2106.36 -2116.43 1126.08 1109.08
6636.45 -2078.45 -2104.18 1088.69 1080.7
6639.28 -2127.74 -2108.96 1027.32 1010.57
6642.11 -2120.7 -2120.2 915.706 985.243
6644.94 -2112.17 -2134.25 1012.7 966.138
6647.77 -2169.89 -2149.68 970.004 1037.65
6650.6 -2166.99 -2181.3 1130.25 1059.72
6653.43 -2207.03 -2163.35 1078.91 1113.74
6656.26 -2116.02 -2150.96 1132.06 1127.85
6659.09 -2129.84 -2120.88 1172.58 1144.61
6661.92 -2116.79 -2111.99 1129.2 1116.07
6664.75 -2089.34 -2091.74 1046.42 1140.34
6667.58 -2069.09 -2073.05 1245.42 1165.66
6670.41 -2060.73 -2071.6 1205.16 1264.8
6673.24 -2084.97 -2082.84 1343.84 1277.08
6676.07 -2102.82 -2082.63 1282.25 1310.9
6678.9 -2060.1 -2098.81 1306.62 1308.45
6681.73 -2133.51 -2105.14 1336.48 1281.02
6684.56 -2121.8 -2087.24 1199.98 1219.04
6687.39 -2006.41 -2078.44 1120.66 1175.63
6690.22 -2107.11 -2048.58 1206.24 1202.55
6693.04 -2032.21 -2077.86 1280.75 1207.78
6695.87 -2094.27 -2058.99 1136.35 1219.67
6698.7 -2050.5 -2091.46 1241.92 1190.62
6701.53 -2129.62 -2090.8 1193.58 1215.57
6704.36 -2092.3 -2117.13 1211.22 1232.13
6707.18 -2129.46 -2094.8 1291.59 1281.85
6710.01 -2062.64 -2092.02 1342.73 1294.86
6712.84 -2083.94 -2053.59 1250.27 1285.71
6715.67 -2014.17 -2039.72 1264.14 1291.47
6718.49 -2021.04 -2039.56 1360.02 1246.63
6721.32 -2083.48 -2034.52 1115.73 1239.86
6724.15 -1999.05 -2068.45 1243.84 1169.06
6726.97 -2122.83 -2064.1 1147.62 1200.24
6729.8 -2070.41 -2099.64 1209.25 1216.95
6732.62 -2105.68 -2081.5 1293.97 1265.28
6735.45 -2068.42 -2092.05 1292.63 1295.96
6738.28 -2102.06 -2050.01 1301.29 1311.08
6741.1 -1979.56 -2031.87 1339.33 1314.11
6743.93 -2013.98 -2007.83 1301.71 1312.91
6746.75 -2029.95 -2014.88 1297.69 1331.11
6749.58 -2000.72 -1986.65 1393.93 1335.79
6752.4 -1929.28 -1967.2 1315.77 1361.55
6755.23 -1971.6 -1949.41 1374.97 1327.41
6758.05 -1947.35 -1990.76 1291.5 1354.64
6760.88 -2053.32 -2004.72 1397.45 1343.4
6763.7 -2013.49 -2024.15 1341.24 1342.79
6766.53 -2005.64 -1983.13 1289.66 1325.83
6769.35 -1930.26 -1958.21 1346.59 1384.85
6772.17 -1938.73 -1948.1 1518.29 1451.65
6775 -1975.3 -1999.36 1490.08 1481.06
6777.82 -2084.06 -2018.99 1434.82 1426.4
6780.64 -1997.6 -2026.98 1354.31 1361.51
6783.47 -1999.29 -1997.62 1295.4 1357.03
6786.29 -1995.98 -1996.28 1421.39 1419.04
6789.11 -1993.58 -2010.89 1540.34 1455.4
6791.94 -2043.1 -2005.22 1404.48 1460.25
6794.76 -1978.97 -1981.66 1435.92 1419.65
6797.58 -1922.91 -1958.16 1418.56 1441.86
6800.4 -1972.59 -1986.79 1471.09 1447.52
6803.23 -2064.87 -1998.25 1452.91 1453.75
6806.05 -1957.28 -2017.56 1437.24 1490.34
6808.87 -2030.52 -1959.4 1580.88 1511.86
6811.69 -1890.39 -1950.14 1517.45 1521.13
6814.51 -1929.51 -1932.61 1465.05 1481.37
6817.33 -1977.92 -1982.86 1461.62 1464.41
6820.16 -2041.14 -1980.57 1466.55 1511.12
6822.98 -1922.63 -1964.83 1605.18 1576.15
6825.8 -1930.71 -1931.47 1656.71 1703.48
6828.62 -1941.08 -1936.48 1848.56 1740.95
6831.44 -1937.65 -1933.55 1717.59 1642.93
6834.26 -1921.92 -1912.26 1362.64 1451.77
6837.08 -1877.21 -1884.76 1275.09 1381.06
6839.9 -1855.15 -1878.22 1505.45 1325.11
6842.72 -1902.31 -1861.48 1194.81 1371.33
6845.54 -1826.97 -1884.71 1413.72 1342.53
6848.36 -1924.85 -2024.33 1419.07 1429.5
6851.18 -2321.18 -2179.54 1455.72 1464.85
6854 -2292.6 -2345.68 1519.78 1573.71
6856.82 -2423.25 -2338.54 1745.64 1724.29
6859.63 -2299.76 -2324.2 1907.44 1806.12
6862.45 -2249.59 -2220.46 1765.29 1684.85
6865.27 -2112.04 -2051.66 1381.83 1384.54
6868.09 -1793.34 -1895.94 1006.5 1143.8
6870.91 -1782.45 -1786.8 1043.08 1093.66
6873.73 -1784.6 -1789.03 1231.42 1198.19
6876.54 -1800.04 -1838.33 1320.07 1325.01
6879.36 -1930.35 -1874.08 1423.55 1378.29
6882.18 -1891.87 -1922.46 1391.27 1437.25
6885 -1945.17 -1913.48 1496.94 1448.54
6887.81 -1903.39 -1924.68 1457.4 1467.57
6890.63 -1925.49 -1920.26 1448.36 1429.08
6893.45 -1931.9 -1903.29 1381.48 1475.18
6896.26 -1852.5 -1918.07 1595.69 1536.61
6899.08 -1969.82 -1942.59 1632.66 1601.23
6901.9 -2005.45 -2016.72 1575.35 1587.3
6904.71 -2074.88 -2051.06 1553.88 1609.74
6907.53 -2072.86 -2045.08 1699.99 1618.66
6910.34 -1987.52 -2020.7 1602.1 1599.35
6913.16 -2001.73 -2030.72 1495.95 1587.06
6915.98 -2102.92 -2047.55 1663.13 1649.95
6918.79 -2038 -2097.97 1790.77 1764.72
6921.61 -2153 -2095.93 1840.28 1727.62
6924.42 -2096.79 -2129.72 1551.82 1700.01
6927.24 -2139.37 -2133.29 1707.94 1706.61
6930.05 -2163.72 -2143.71 1860.07 1790.34
6932.86 -2128.05 -2150.09 1803.02 1873.97
6935.68 -2158.5 -2124.9 1958.81 1879.3
6938.49 -2088.15 -2130.14 1876.07 1945.47
6941.31 -2143.77 -2152.96 2001.52 1934.03
6944.12 -2226.95 -2176.73 1924.49 1891.36
6946.93 -2159.47 -2176.09 1748.08 1855.78
6949.75 -2141.84 -2181.19 1894.77 1829.22
6952.56 -2242.26 -2165.32 1844.81 1925.99
6955.37 -2111.85 -2138.16 2038.38 1965.08
6958.19 -2060.36 -2122.52 2012.06 1963.9
6961 -2195.35 -2155.06 1841.27 1893.13
6963.81 -2209.47 -2167.02 1826.07 1808.41
6966.62 -2096.24 -2140.25 1757.9 1752.36
6969.44 -2115.03 -2151.5 1673.11 1714.91
6972.25 -2243.24 -2166 1713.7 1679.48
6975.06 -2139.72 -2156.64 1651.61 1734.42
6977.87 -2086.96 -2125.17 1837.96 1709.27
6980.68 -2148.84 -2129.07 1638.24 1693.34
6983.5 -2151.4 -2155.43 1603.83 1679.97
6986.31 -2166.05 -2167.58 1797.83 1745.39
6989.12 -2185.29 -2176.68 1834.51 1813.77
6991.93 -2178.7 -2140 1808.97 1869.8
6994.74 -2056 -2127.74 1965.93 1848.22
6997.55 -2148.51 -2092.13 1769.75 1860.85
7000.36 -2071.89 -2071.38 1846.87 1802.98
7003.17 -1993.75 -2042.88 1792.32 1827.25
7005.98 -2063.01 -2029.78 1842.55 1869.27
7008.79 -2032.58 -2049.84 1972.94 1871.56
7011.6 -2053.93 -2071.9 1799.18 1880.15
7014.41 -2129.2 -2057.98 1868.32 1840.15
7017.22 -1990.8 -2070.73 1852.95 1923.33
7020.03 -2092.19 -2014.31 2048.72 1936.56
7022.84 -1959.94 -2031.21 1908 1934.66
7025.64 -2041.5 -1998.65 1847.26 1912.43
7028.45 -1994.5 -2023.2 1982.02 1900.8
7031.26 -2033.6 -2025.76 1873.11 1988.36
7034.07 -2049.19 -2031.6 2109.96 1979.36
7036.88 -2012.02 -2037.6 1955.02 2040.46
7039.69 -2051.6 -2061.22 2056.41 2001.81
7042.49 -2120.03 -2061.58 1993.99 1987.82
7045.3 -2013.1 -2035.11 1913.04 1991.32
7048.11 -1972.2 -1981.06 2066.92 2011.2
7050.92 -1957.88 -1958.86 2053.63 2018.32
7053.72 -1946.49 -1980.78 1934.43 1973.4
7056.53 -2037.96 -1973.53 1932.15 1942.49
7059.34 -1936.15 -2016.48 1960.89 2030.59
7062.14 -2075.32 -1994.05 2198.74 2118.21
7064.95 -1970.67 -2019.61 2194.99 2246
7067.75 -2012.85 -1980.15 2344.28 2296.84
7070.56 -1956.92 -1980.43 2351.26 2377.09
7073.37 -1971.53 -1971.09 2435.72 2374.21
7076.17 -1984.82 -1984.8 2335.64 2409.23
7078.98 -1998.06 -1999.55 2456.32 2392.69
7081.78 -2015.79 -2005.78 2386.12 2411
7084.59 -2003.5 -2009.22 2390.56 2451.84
7087.39 -2008.38 -1981.54 2578.84 2494.92
7090.2 -1932.74 -1969.62 2515.37 2491.01
7093 -1967.73 -1943.38 2378.82 2429.71
7095.81 -1929.67 -1955.29 2394.94 2451.11
7098.61 -1968.48 -1957.78 2579.59 2477.97
7101.41 -1975.2 -1989.31 2459.39 2562.36
7104.22 -2024.24 -1980.08 2648.12 2559.57
7107.02 -1940.79 -1979.66 2571.2 2583.09
7109.82 -1973.96 -1947.04 2529.96 2590.7
7112.63 -1926.37 -1946.28 2670.94 2595.53
7115.43 -1938.5 -1921.67 2585.69 2673.01
7118.23 -1900.13 -1919.9 2762.4 2685.72
7121.04 -1921.08 -1904.92 2709.06 2651.45
7123.84 -1893.55 -1917.1 2482.89 2623.75
7126.64 -1936.67 -1903.76 2679.29 2537.03
7129.44 -1881.06 -1906.48 2448.92 2595.24
7132.24 -1901.72 -1868.7 2657.51 2597.9
7135.05 -1823.32 -1896.49 2687.27 2723.79
7137.85 -1964.43 -1870.88 2826.6 2690.79
7140.65 -1824.88 -1887.72 2558.5 2701.76
7143.45 -1873.86 -1832.35 2720.19 2629.82
7146.25 -1798.32 -1817.49 2610.78 2677.92
7149.05 -1780.3 -1825.57 2702.79 2684.29
7151.85 -1898.09 -1849.16 2739.3 2711.63
7154.65 -1869.07 -1887.9 2692.81 2718.61
7157.45 -1896.53 -1869.63 2723.73 2726.06
7160.25 -1843.28 -1846.17 2761.64 2764.77
7163.05 -1798.71 -1786.95 2808.94 2746.17
7165.85 -1718.86 -1781.97 2667.93 2713.83
7168.65 -1828.34 -1779.27 2664.62 2637.65
7171.45 -1790.61 -1807.96 2580.4 2598.74
7174.25 -1804.95 -1786.27 2551.19 2555.07
7177.05 -1763.27 -1777.65 2533.61 2588.84
7179.85 -1764.72 -1736.5 2681.72 2592.99
7182.65 -1681.51 -1675.39 2563.65 2544.26
7185.45 -1579.94 -1613.24 2387.4 2565.94
7188.25 -1578.28 -1596.13 2746.75 2559.79
7191.04 -1630.18 -1615.36 2545.21 2687.83
7193.84 -1637.62 -1638.71 2771.55 2691.46
7196.64 -1648.33 -1624.73 2757.63 2744.3
7199.44 -1588.25 -1627.6 2703.72 2760.39
7202.23 -1646.21 -1594.39 2819.8 2764.24
7205.03 -1548.72 -1606.03 2769.2 2827.03
7207.83 -1623.15 -1590.25 2892.08 2826.42
7210.63 -1598.87 -1629.88 2817.99 2892.95
7213.42 -1667.63 -1678.94 2968.78 2833.95
7216.22 -1770.3 -1706.87 2715.08 2835.69
7219.01 -1682.69 -1719.05 2823.23 2795.13
7221.81 -1704.17 -1688.75 2847.08 2853.49
7224.61 -1679.38 -1701.24 2890.17 2778.16
7227.4 -1720.18 -1694.59 2597.24 2677.97
7230.2 -1684.2 -1655.96 2546.51 2483.41
7232.99 -1563.5 -1636.24 2306.49 2436.41
7235.79 -1661.01 -1589.34 2456.23 2484.61
7238.58 -1543.51 -1649.19 2691.12 2763.31
7241.38 -1743.04 -1618.15 3142.59 3054.46
7244.17 -1567.89 -1665.2 3329.67 3273.1
7246.97 -1684.68 -1633.5 3347.03 3352.57
7249.76 -1647.92 -1672.01 3381.01 3318.7
7252.55 -1683.41 -1671.58 3228.06 3197.65
7255.35 -1683.4 -1675.69 2983.87 3174.86
7258.14 -1660.25 -1670.22 3312.65 3120.6
7260.94 -1666.99 -1644.65 3065.26 3152.19
7263.73 -1606.7 -1629.38 3078.65 2874.91
7266.52 -1614.45 -1603.54 2480.8 2706.11
7269.32 -1589.48 -1567.74 2558.88 2629.78
7272.11 -1499.3 -1528.89 2849.66 2877.53
7274.9 -1497.9 -1512.91 3224.04 3196.02
7277.69 -1541.52 -1563.93 3514.35 3442.95
7280.48 -1652.36 -1615.91 3590.45 3569.12
7283.28 -1653.85 -1623.74 3602.54 3593.56
7286.07 -1565.02 -1605 3587.68 3532.34
7288.86 -1596.13 -1564.11 3406.79 3447.44
7291.65 -1531.18 -1573.16 3347.85 3412.86
7294.44 -1592.16 -1549.17 3483.94 3422.5
7297.23 -1524.19 -1551.32 3435.73 3381.81
7300.02 -1537.62 -1546.85 3225.76 3330.73
7302.81 -1578.74 -1580.39 3330.72 3242.71
7305.61 -1624.79 -1601.93 3171.66 3124.87
7308.4 -1602.24 -1591.68 2872.25 3125.21
7311.19 -1548.02 -1555.84 3331.72 3282.82
7313.98 -1517.25 -1535.71 3644.51 3567.38
7316.77 -1541.87 -1544.79 3725.9 3726.42
7319.55 -1575.24 -1577.99 3808.85 3805.91
7322.34 -1616.86 -1579.92 3882.98 3816.26
7325.13 -1547.67 -1571.88 3756.96 3669.17
7327.92 -1551.11 -1586.49 3367.58 3435.55
7330.71 -1660.7 -1582.22 3182.11 3270.4
7333.5 -1534.85 -1601.84 3261.51 3309.04
7336.29 -1609.96 -1564.04 3483.52 3576.21
7339.08 -1547.31 -1587.95 3983.6 3920.54
7341.86 -1606.58 -1602.58 4294.48 4247.85
7344.65 -1653.86 -1636.96 4465.46 4191.9
7347.44 -1650.44 -1645.33 3815.75 4005.62
7350.23 -1631.71 -1622.76 3735.65 3788.88
7353.01 -1586.13 -1599.02 3815.24 3739.32
7355.8 -1579.22 -1598.86 3667.07 3808.62
7358.59 -1631.24 -1593.68 3943.57 3825.39
7361.37 -1570.57 -1573.83 3865.53 3844.49
7364.16 -1519.7 -1542.42 3724.37 3950.43
7366.95 -1536.98 -1525.4 4261.38 4112.61
7369.73 -1519.53 -1537.15 4352.09 4376.59
7372.52 -1554.95 -1551.24 4516.29 4402.47
7375.3 -1579.24 -1569.21 4339.02 4351.8
7378.09 -1573.44 -1568.76 4200.09 4182.12
7380.87 -1553.61 -1570.99 4007.25 4134.05
7383.66 -1585.92 -1562.19 4194.81 4054.25
7386.44 -1547.04 -1528.84 3960.67 4019.4
7389.23 -1453.55 -1481.44 3902.72 3934.73
7392.01 -1443.72 -1467.85 3940.79 3889.63
7394.8 -1506.29 -1482.57 3825.38 3977.78
7397.58 -1497.7 -1528.58 4167.19 4148.75
7400.36 -1581.74 -1522.39 4453.69 4342.67
7403.15 -1487.73 -1557.92 4407.14 4422.31
7405.93 -1604.28 -1544.08 4406.11 4338.98
7408.72 -1540.22 -1542.09 4203.7 4290.31
7411.5 -1481.78 -1499.9 4261.11 4227.29
7414.28 -1477.7 -1495.3 4217.06 4233.52
7417.06 -1526.42 -1494.85 4222.39 4287.62
7419.85 -1480.44 -1493.35 4423.41 4272.6
7422.63 -1473.2 -1490.65 4172.02 4340.33
7425.41 -1518.31 -1485.38 4425.56 4327.16
7428.19 -1464.61 -1476.46 4383.91 4471.65
7430.97 -1446.45 -1488.71 4605.47 4446.49
7433.76 -1555.05 -1484.48 4350.09 4469.01
7436.54 -1451.94 -1528.34 4451.49 4519.86
7439.32 -1578.01 -1497.42 4758.02 4647.69
7442.1 -1462.3 -1513.1 4733.58 4656.07
7444.88 -1498.99 -1453.51 4476.62 4578.93
7447.66 -1399.24 -1459.63 4526.59 4438.85
7450.44 -1480.65 -1457.34 4313.32 4403.68
7453.22 -1492.13 -1489.23 4371.12 4383.06
7456 -1494.92 -1498.72 4464.74 4411.72
7458.78 -1509.11 -1492.94 4399.31 4304.24
7461.56 -1474.78 -1475.2 4048.69 4299.76
7464.34 -1441.71 -1466.81 4451.29 4361.39
7467.12 -1483.95 -1455.77 4584.21 4549.15
7469.9 -1441.66 -1460.4 4611.95 4609
7472.68 -1455.59 -1451.44 4630.83 4692.94
7475.45 -1457.07 -1439.46 4836.03 4762.34
7478.23 -1405.73 -1439.01 4820.17 4960.19
7481.01 -1454.25 -1453.56 5224.38 5036.25
7483.79 -1500.7 -1489.84 5064.19 5121.54
7486.57 -1514.57 -1488.48 5076.03 5044.6
7489.34 -1450.17 -1481.77 4993.58 4999.41
7492.12 -1480.56 -1443.67 4928.63 4978.41
7494.9 -1400.28 -1418.49 5013.03 4906.02
7497.67 -1374.62 -1407.37 4776.41 4877.02
7500.45 -1447.21 -1408.04 4841.61 4825.78
7503.23 -1402.28 -1432.75 4859.31 4756.75
7506 -1448.75 -1421.14 4569.33 4695.85
7508.78 -1412.38 -1427.21 4658.9 4605.07
7511.56 -1420.49 -1402.86 4586.97 4616.79
7514.33 -1375.7 -1380.96 4604.5 4612.11
7517.11 -1346.7 -1372.04 4644.87 4866.22
7519.88 -1393.72 -1375.51 5349.29 5103.53
7522.66 -1386.11 -1386.67 5316.44 5378.11
7525.43 -1380.18 -1362.36 5468.59 5396.52
7528.21 -1320.78 -1350.16 5404.54 5468.68
7530.98 -1349.51 -1360.25 5532.91 5549.46
7533.76 -1410.46 -1396.13 5710.94 5479.28
7536.53 -1428.42 -1403.13 5193.98 5379.09
7539.3 -1370.51 -1393.69 5232.33 5181.85
7542.08 -1382.14 -1378.06 5119.24 5171.19
7544.85 -1381.53 -1381.79 5162 5128.57
7547.62 -1381.69 -1360.81 5104.48 5099.99
7550.4 -1319.2 -1362.64 5033.5 5088.07
7553.17 -1387.03 -1349.87 5126.22 5091.22
7555.94 -1343.37 -1365.55 5113.94 5126.63
7558.72 -1366.24 -1356.41 5139.75 5153.24
7561.49 -1359.63 -1356.37 5206.03 5098.38
7564.26 -1343.25 -1365.24 4949.38 5182.37
7567.03 -1392.83 -1367.46 5391.7 5322.01
7569.8 -1366.31 -1368.43 5624.94 5487.67
7572.57 -1346.14 -1327.19 5446.38 5514.13
7575.35 -1269.11 -1322.18 5471.06 5497.37
7578.12 -1351.28 -1311.82 5574.67 5469.21
7580.89 -1315.07 -1326.42 5361.91 5488.75
7583.66 -1312.9 -1280.03 5529.67 5337.66
7586.43 -1212.12 -1252.9 5121.39 5213.47
7589.2 -1233.67 -1190.45 4989.36 4833.01
7591.97 -1125.56 -1100.59 4388.28 4252.24
7594.74 -942.552 -927.907 3379.08 3374.07
7597.51 -715.606 -705.742 2354.85 2500.82
7600.28 -459.069 -498.668 1768.53 1838.17
7603.05 -321.329 -358.48 1391.12 1489.17
7605.81 -295.042 -311.079 1307.85 1368.87
7608.58 -316.867 -329.945 1407.63 1524.82
7611.35 -377.926 -414.493 1858.97 2008.43
7614.12 -548.685 -546.606 2758.71 2692.49
7616.89 -713.207 -689.606 3459.79 3297.67
7619.66 -806.928 -782.332 3674.52 3432.46
7622.42 -826.862 -755.941 3163.08 3279.65
7625.19 -634.033 -706.437 3001.36 2964.82
7627.96 -658.416 -634.794 2730.02 2864.14
7630.73 -611.934 -626.761 2861.03 2750.52
7633.49 -609.934 -620.834 2660.52 2850.82
7636.26 -640.634 -637.482 3030.91 2903.21
7639.03 -661.878 -667.21 3018.21 3095.28
7641.79 -699.118 -692.311 3236.73 3233.66
7644.56 -715.936 -744.879 3446.03 3397.21
7647.32 -819.584 -782.658 3508.88 3586.11
7650.09 -812.455 -837.778 3803.41 3792.49
7652.85 -881.295 -873.542 4065.18 4081.93
7655.62 -926.877 -893.096 4377.21 4329.03
7658.38 -871.117 -918.008 4544.71 4506.27
7661.15 -956.029 -932.123 4596.88 4670.56
7663.91 -969.222 -961.052 4870.1 4803.1
7666.68 -957.904 -981.347 4942.32 4966.81
7669.44 -1016.91 -988.946 5088.02 5135.02
7672.21 -992.021 -1024.56 5374.72 5222.75
7674.97 -1064.73 -1054.29 5205.52 5305.16
7677.73 -1106.11 -1088.31 5335.23 5214.68
7680.5 -1094.09 -1112.84 5103.3 5412.95
7683.26 -1138.3 -1114 5800.33 5413.52
7686.02 -1109.59 -1131.89 5336.93 5593.13
7688.79 -1147.77 -1113.36 5642.14 5505.01
7691.55 -1082.71 -1126.35 5535.96 5515.93
7694.31 -1148.57 -1107.82 5369.69 5352.7
7697.07 -1092.17 -1122.06 5152.46 5238.24
7699.83 -1125.44 -1128.98 5192.58 5124.76
7702.59 -1169.34 -1149.07 5029.24 5056.76
7705.36 -1152.44 -1156.52 4948.47 5085.43
7708.12 -1147.77 -1166.07 5278.57 5360.96
7710.88 -1198.02 -1167.88 5855.83 5949.09
7713.64 -1157.86 -1158.23 6712.87 6471.8
7716.4 -1118.81 -1147.46 6846.7 6822.31
7719.16 -1165.71 -1135.94 6907.35 6655.72
7721.92 -1123.3 -1156.05 6213.11 6542.31
7724.68 -1179.14 -1149.14 6506.46 6263.18
7727.44 -1144.98 -1140.73 6069.98 6111.41
7730.2 -1098.07 -1144.94 5757.77 5874.33
7732.96 -1191.78 -1131.01 5795.24 5655.45
7735.72 -1103.18 -1132.56 5413.33 5492.25
7738.48 -1102.74 -1088.92 5268.17 5188.46
7741.23 -1060.85 -1133.42 4883.88 5202.62
7743.99 -1236.68 -1161.98 5455.82 5368
7746.75 -1188.41 -1251.91 5764.31 5814.78
7749.51 -1330.65 -1266.84 6224.23 6263.56
7752.27 -1281.46 -1321.13 6802.13 6573.37
7755.02 -1351.29 -1302.42 6693.76 6597.73
7757.78 -1274.52 -1298.72 6297.3 6457.95
7760.54 -1270.35 -1294.16 6382.78 6329.5
7763.29 -1337.61 -1284.28 6308.43 6264.08
7766.05 -1244.88 -1269.86 6101.04 6131.01
7768.81 -1227.09 -1236.6 5983.56 6019.92
7771.56 -1237.83 -1240.62 5975.16 5961.63
7774.32 -1256.93 -1226.8 5926.17 5827.63
7777.08 -1185.64 -1222.88 5581.56 5747.12
7779.83 -1226.05 -1228.54 5733.62 5662.86
7782.59 -1273.91 -1242.97 5673.41 5646.31
7785.34 -1228.95 -1246.47 5531.91 5586.57
7788.1 -1236.53 -1255.75 5554.41 5800.92
7790.85 -1301.76 -1266.76 6316.45 6144.31
7793.61 -1262 -1279.66 6562.08 6553.86
7796.36 -1275.22 -1258.5 6783.04 6488.67
7799.11 -1238.29 -1249.01 6120.88 6246.22
7801.87 -1233.53 -1236.11 5834.74 5969.82
7804.62 -1236.52 -1246.49 5953.84 5923.92
7807.37 -1269.42 -1260.28 5983.19 5864.85
7810.13 -1274.91 -1280.99 5657.53 5868.22
7812.88 -1298.65 -1265.57 5963.93 5800.37
7815.63 -1223.16 -1234.83 5779.66 6190.37
7818.39 -1182.69 -1210.53 6827.51 6613.58
7821.14 -1225.75 -1225.57 7233.56 7048.61
7823.89 -1268.26 -1248.29 7084.76 7022.18
7826.64 -1250.88 -1237.71 6748.2 6704.86
7829.39 -1194.01 -1218.41 6281.62 6331.95
7832.14 -1210.33 -1191.08 5966.03 5967.82
7834.9 -1168.91 -1202.8 5655.82 5767.2
7837.65 -1229.17 -1154.96 5679.75 5595.01
7840.4 -1066.8 -1165.5 5449.47 5532.32
7843.15 -1200.55 -1167.94 5467.74 5472.79
7845.9 -1236.49 -1184.58 5501.15 5571.94
7848.65 -1116.7 -1150.19 5746.94 5826.44
7851.4 -1097.37 -1118.36 6231.23 6254.68
7854.15 -1141.02 -1136.59 6785.86 6559.91
7856.9 -1171.38 -1149.71 6662.62 6711.62
7859.65 -1136.72 -1131.52 6686.38 6498.41
7862.4 -1086.46 -1132.89 6146.23 6389.52
7865.14 -1175.48 -1143.37 6335.94 6261.12
7867.89 -1168.19 -1162.87 6301.18 6332.46
7870.64 -1144.94 -1155.39 6360.28 6265.7
7873.39 -1153.05 -1133.62 6135.64 6255.78
7876.14 -1102.87 -1153.66 6271.42 6249.04
7878.88 -1205.05 -1135.28 6340.06 6372.39
7881.63 -1097.93 -1153.8 6505.68 6389.76
7884.38 -1158.41 -1130.28 6323.54 6549.54
7887.13 -1134.5 -1107.11 6819.38 6489.85
7889.87 -1028.43 -1078.19 6326.61 6391.86
7892.62 -1071.63 -1074.44 6029.58 6167.98
7895.36 -1123.24 -1105.16 6147.74 5992.37
7898.11 -1120.62 -1125.54 5799.79 5894.9
7900.86 -1132.76 -1135.7 5737.17 5543.89
7903.6 -1153.71 -1135.53 5094.72 5392.52
7906.35 -1120.13 -1092.12 5345.67 5426.08
7909.09 -1002.52 -1083.36 5837.83 5918.33
7911.84 -1127.42 -1062.08 6571.49 6490.24
7914.58 -1056.28 -1082.53 7061.41 6859.15
7917.33 -1063.88 -1091.02 6944.56 6932.31
7920.07 -1152.89 -1102.71 6790.95 6808.37
7922.81 -1091.36 -1088.93 6689.59 6620.76
7925.56 -1022.53 -1079.7 6381.74 6461.4
7928.3 -1125.19 -1088.94 6312.88 6358.81
7931.05 -1119.1 -1107.11 6381.82 6283.67
7933.79 -1077.03 -1091.9 6156.32 6235.26
7936.53 -1079.55 -1073.62 6167.63 6170.59
7939.27 -1064.28 -1059.54 6187.83 6115.67
7942.02 -1034.78 -1025.29 5991.55 5984.48
7944.76 -976.801 -1012.17 5774.07 5886.69
7947.5 -1024.93 -1011.72 5894.45 5881.63
7950.24 -1033.42 -1048.52 5976.38 5977.14
7952.98 -1087.21 -1067.78 6060.61 5909.99
7955.73 -1082.71 -1067.91 5693 5791.93
7958.47 -1033.82 -1042.56 5622.2 5859.53
7961.21 -1011.16 -991.752 6263.4 6204.4
7963.95 -930.278 -980.723 6727.59 6568.18
7966.69 -1000.73 -1010.32 6713.53 6704.44
7969.43 -1099.95 -1048.48 6672.18 6574.77
7972.17 -1044.76 -1053.79 6338.58 6380.08
7974.91 -1016.65 -1043.91 6129.47 6142.37
7977.65 -1070.33 -1028.79 5959.04 6069.24
7980.39 -999.386 -1034.08 6119.22 6029.68
7983.13 -1032.52 -996.865 6010.76 5930.19
7985.86 -958.693 -1009.46 5660.6 6056.68
7988.6 -1037.17 -977.963 6498.68 6235.05
7991.34 -938.027 -961.007 6545.86 6729.32
7994.08 -907.823 -959.165 7143.43 6868.11
7996.82 -1031.64 -968.364 6915.04 6831.89
7999.55 -965.625 -998.018 6437.2 6458.44
8002.29 -996.786 -965.48 6023.08 6078.54
8005.03 -934.028 -985.311 5775.33 5951
8007.77 -1025.12 -995.247 6054.59 5996.07
8010.5 -1026.59 -1015.43 6158.28 6018.32
8013.24 -994.564 -1010.46 5842.08 6056.07
8015.98 -1010.23 -997.041 6167.85 5993.82
8018.71 -986.329 -986.487 5971.53 6089.78
8021.45 -962.903 -942.692 6129.95 6309.36
8024.18 -878.842 -949.703 6826.61 6655.28
8026.92 -1007.36 -912.11 7009.3 6786.2
8029.65 -850.124 -958.38 6522.7 6699.07
8032.39 -1017.65 -963.049 6565.21 6550.94
8035.12 -1021.37 -994.318 6564.9 6455.14
8037.86 -943.932 -976.495 6235.3 6303.68
8040.59 -964.185 -969.496 6110.84 6091.45
8043.32 -1000.37 -956.22 5928.21 5999.53
8046.06 -904.104 -934.7 5959.54 5960.75
8048.79 -899.624 -907.352 5994.5 6039.5
8051.53 -918.327 -936.448 6164.46 6022.04
8054.26 -991.393 -964.333 5907.16 6098.39
8056.99 -983.28 -962.07 6223.56 6151.71
8059.72 -911.538 -952.479 6324.39 6429.78
8062.46 -962.618 -954.102 6741.39 6554.72
8065.19 -988.151 -971.608 6598.39 6599.34
8067.92 -964.054 -951.105 6458.24 6355.07
8070.65 -901.11 -919.881 6008.57 6277.57
8073.38 -894.48 -903.01 6365.9 6245.46
8076.11 -913.441 -922.868 6361.93 6254
8078.84 -960.683 -935.076 6034.17 6190.83
8081.57 -931.103 -946.845 6176.39 6120.11
8084.31 -948.748 -913.451 6149.77 6053.4
8087.04 -860.503 -899.551 5834.05 6002.06
8089.77 -889.403 -877.37 6022.35 5933.32
8092.49 -882.203 -899.587 5943.56 6053.08
8095.22 -927.155 -897.265 6193.34 6080.95
8097.95 -882.436 -909.151 6105.96 6158.6
8100.68 -917.863 -893.954 6176.49 6179.25
8103.41 -881.564 -898.993 6255.29 6146.85
8106.14 -897.552 -880.57 6008.76 6115.33
8108.87 -862.594 -872.997 6081.94 6017.98
8111.6 -858.844 -880.414 5963.24 6045.41
8114.32 -919.805 -879.565 6091.06 6013.48
8117.05 -860.046 -878.826 5986.13 6034.1
8119.78 -856.627 -872.91 6025.12 6023.62
8122.51 -902.056 -877.55 6059.61 6012.44
8125.23 -873.965 -901.305 5952.59 6049.64
8127.96 -927.893 -884.486 6136.71 6000.73
8130.69 -851.6 -885.914 5912.88 6021.58
8133.41 -878.249 -854.352 6015.14 5981.99
8136.14 -833.207 -856.739 6017.95 5929.51
8138.86 -858.761 -849.339 5755.44 5907.1
8141.59 -856.049 -846.238 5947.91 5830.44
8144.31 -823.905 -823.854 5787.98 5839.75
8147.04 -791.609 -814.672 5783.35 5838.34
8149.76 -828.503 -1201.41 5943.68 8353.7
8152.49 -1984.11 -1205.33 13334.1 8338.48
8155.21 -803.378 -1213.07 5737.69 8273.66
8157.94 -851.732 -822.392 5749.23 5675.71
8160.66 -812.066 -818.532 5540.21 5603.95
8163.38 -791.798 -785.916 5522.42 5500.87
8166.11 -753.885 -778.425 5439.97 5439.75
8168.83 -789.591 -781.251 5356.87 5468.79
8171.55 -800.277 -775.726 5609.53 5489.93
8174.27 -737.309 -776.564 5503.4 5503.34
8177 -792.104 -761.417 5397.1 5480.07
8179.72 -754.838 -766.222 5539.72 5410.16
8182.44 -751.723 -755.155 5293.66 5408.31
8185.16 -758.904 -743.417 5391.55 5369.21
8187.88 -719.623 -751.506 5422.41 5480.27
8190.61 -775.991 -755.547 5626.84 5528.16
8193.33 -771.027 -747.102 5535.24 5447.03
8196.05 -694.289 -743.465 5179.02 5348.38
8198.77 -765.077 -739.915 5330.89 5368.56
8201.49 -760.378 -783.066 5595.77 5642.67
8204.21 -823.744 -788.439 6001.35 5752.53
8206.93 -781.195 -808.214 5660.48 5896.51
8209.65 -819.702 -779.289 6027.69 5756.71
8212.36 -736.97 -776.023 5581.95 5731.73
8215.08 -771.396 -772.603 5585.55 5635.75
8217.8 -809.444 -793.697 5739.74 5641.27
8220.52 -800.252 -779.002 5598.53 5502.63
8223.24 -727.31 -751.357 5169.62 5317.95
8225.96 -726.51 -721.578 5185.72 5134.76
8228.67 -710.915 -702.218 5048.94 5052.77
8231.39 -669.23 -688.639 4923.66 5073.42
8234.11 -685.773 -706.323 5247.64 5212.46
8236.83 -763.967 -748.602 5466.08 5384.18
8239.54 -796.067 -760.997 5438.8 5509.49
8242.26 -722.957 -757.062 5623.58 5567.79
8244.98 -752.161 -749.901 5641 5748.46
8247.69 -774.585 -768.235 5980.8 5813.67
8250.41 -777.958 -771.617 5819.2 5846.79
8253.12 -762.309 -776.801 5740.37 5714.55
8255.84 -790.135 -763.191 5584.07 5681
8258.55 -737.13 -778.348 5718.55 5617.24
8261.27 -807.78 -741.964 5549.08 5579.13
8263.98 -680.982 -744.753 5469.76 5567.16
8266.7 -745.497 -743.196 5682.63 5564.5
8269.41 -803.11 -771.775 5541.11 5528.58
8272.12 -766.719 -780.28 5361.98 5351.2
8274.84 -771.011 -734.694 5150.51 5157.74
8277.55 -666.352 -708.469 4960.74 5090.26
8280.26 -688.045 -686.174 5159.54 5154.92
8282.98 -704.125 -679.052 5344.49 5228.21
8285.69 -644.985 -659.657 5180.62 5255.94
8288.4 -629.861 -638.931 5242.72 5187.01
8291.11 -641.948 -678.304 5137.68 5215.44
8293.83 -763.102 -704.929 5265.92 5309.03
8296.54 -709.738 -711.437 5523.51 5496.72
8299.25 -661.473 -695.68 5700.73 5722.68
8301.96 -715.829 -702.75 5943.81 5740.45
8304.67 -730.948 -698.764 5576.81 5718.7
8307.38 -649.514 -682.157 5635.46 5572.32
8310.09 -666.008 -687.457 5504.7 5594.98
8312.8 -746.849 -704.736 5644.79 5570.65
8315.51 -701.353 -733.673 5562.45 5612.85
8318.22 -752.818 -726.999 5631.3 5616.09
8320.93 -726.827 -736.234 5654.53 5587.05
8323.64 -729.058 -714.798 5475.31 5515.38
8326.35 -688.509 -694.36 5416.31 5412.42
8329.06 -665.514 -692.463 5345.65 5437.95
8331.76 -723.366 -695.94 5551.87 5256.33
8334.47 -698.941 -707.327 4871.46 4876.46
8337.18 -699.673 -655.996 4206.06 4491.72
8339.89 -569.374 -638.417 4397.64 4608.95
8342.59 -646.204 -601.445 5223.17 5060.29
8345.3 -588.757 -671.608 5560.05 5768.68
8348.01 -779.862 -712.399 6522.81 6096.53
8350.72 -768.579 -725.325 6206.73 6166.12
8353.42 -627.533 -693.566 5768.83 5903.46
8356.13 -684.586 -676.131 5734.81 5741.97
8358.83 -716.274 -695.628 5722.28 5644.94
8361.54 -686.024 -703.387 5477.72 5517.47
8364.24 -707.864 -698.943 5352.43 5462.5
8366.95 -702.941 -718.302 5557.35 5529.23
8369.65 -744.1 -719.91 5677.9 5573.77
8372.36 -712.688 -733.719 5486.06 5488.4
8375.06 -744.37 -701.769 5301.23 5320.83
8377.77 -648.25 -712.203 5175.2 5286.93
8380.47 -743.988 -680.065 5384.35 5381.41
8383.17 -647.957 -713.541 5584.67 5492.39
8385.88 -748.678 -700.627 5508.15 5518.05
8388.58 -705.246 -716.161 5461.34 5328.17
8391.28 -694.56 -683.675 5015.03 5171.74
8393.99 -651.22 -684.575 5038.87 5077.51
8396.69 -707.944 -686.656 5178.64 5316.8
8399.39 -700.805 -710.813 5732.88 5772.12
8402.09 -723.691 -705.04 6404.84 6083.75
8404.79 -690.622 -701.152 6113.54 6013.98
8407.49 -689.141 -695.173 5523.57 5647.79
8410.19 -705.754 -703.361 5306.24 5469.75
8412.9 -715.187 -701.28 5579.44 5448.86
8415.6 -682.899 -686.091 5460.88 5459.71
8418.3 -660.185 -677.743 5338.8 5356.39
8421 -690.143 -678.297 5269.5 5225.18
8423.7 -684.561 -685.806 5067.25 5037.56
8426.4 -682.715 -683.325 4775.92 5010.66
8429.09 -682.699 -671.243 5188.8 5130.78
8431.79 -648.315 -666.229 5427.63 5494.39
8434.49 -667.672 -670.169 5866.72 5668.31
8437.19 -694.52 -675.731 5710.59 5700.55
8439.89 -665.001 -668.905 5524.33 5558.89
8442.59 -647.193 -662.619 5441.74 5452.76
8445.28 -675.664 -666.41 5392.2 5329.01
8447.98 -676.374 -674.482 5153.1 5362.61
8450.68 -671.408 -666.599 5542.54 5339.26
8453.38 -652.013 -668.366 5322.15 5511.06
8456.07 -681.676 -666.925 5668.51 5358.89
8458.77 -667.087 -661.365 5086.02 5227.57
8461.46 -635.333 -653.702 4928.18 5037.19
8464.16 -658.686 -653.984 5097.36 5176.68
8466.86 -667.933 -640.073 5504.51 5372.62
8469.55 -593.601 -651.667 5515.99 5457.99
8472.25 -693.468 -656.522 5353.47 5419.27
8474.94 -682.496 -673.298 5388.34 5309.87
8477.64 -643.931 -676.589 5187.8 5265.58
8480.33 -703.34 -678.623 5220.62 5213.49
8483.02 -688.597 -691.409 5232.06 5273.12
8485.72 -682.289 -686.552 5366.7 5323.52
8488.41 -688.77 -688.437 5371.8 5302.26
8491.1 -694.252 -672.756 5168.27 5215.1
8493.8 -635.247 -667.616 5105.24 5029.23
8496.49 -673.35 -620.689 4814.17 4838.68
8499.18 -553.469 -611.669 4596.63 4849.03
8501.87 -608.188 -580.987 5136.29 4982.23
8504.57 -581.303 -616.549 5213.77 5167.73
8507.26 -660.154 -657.487 5153.13 5243.58
8509.95 -731.003 -690.49 5363.85 5212.38
8512.64 -680.314 -686.821 5120.17 5214.24
8515.33 -649.146 -654.303 5158.71 5143.98
8518.02 -633.45 -644.788 5153.06 5136.32
8520.71 -651.767 -651.607 5097.18 5131.21
8523.4 -669.604 -657.088 5143.39 5085.07
8526.09 -649.892 -646.092 5014.64 5033.64
8528.78 -618.78 -644.087 4942.9 5100.58
8531.47 -663.589 -646.59 5344.21 5193.56
8534.16 -657.401 -639.811 5293.58 5231.77
8536.85 -598.443 -629.699 5057.5 5056.58
8539.54 -633.252 -583.896 4818.66 4731.14
8542.23 -519.993 -537.684 4317.26 4426.67
8544.91 -459.806 -494.686 4144.08 4288.15
8547.6 -504.257 -528.134 4403.1 4522.85
8550.29 -620.337 -577.219 5021.37 4835.35
8552.98 -607.064 -622.22 5081.58 5097.4
8555.66 -639.258 -624.122 5189.26 5122.21
8558.35 -626.043 -628.229 5095.8 5115.99
8561.04 -619.385 -623.012 5062.9 5152.21
8563.72 -623.608 -634.777 5297.93 5227.19
8566.41 -661.338 -661.751 5320.72 5367.31
8569.09 -700.307 -664.92 5483.27 5365.5
8571.78 -633.116 -658.227 5292.5 5382.74
8574.46 -641.257 -652.816 5372.45 5328.39
8577.15 -684.074 -659.122 5320.21 5261.59
8579.83 -652.034 -669.706 5092.11 5259.13
8582.52 -673.009 -661.312 5365.08 5204.01
8585.2 -658.894 -699.505 5154.83 5256.36
8587.89 -766.611 -743.77 5249.17 5243.45
8590.57 -805.806 -771.47 5326.35 5232.69
8593.25 -741.993 -766.771 5122.54 5248.3
8595.94 -752.515 -742.066 5296 5120.95
8598.62 -731.691 -741.347 4944.31 5140.07
8601.3 -739.835 -739.104 5179.9 5057.88
8603.98 -745.785 -763.775 5049.44 5176.24
8606.66 -805.705 -769.989 5299.38 5227.09
8609.35 -758.477 -771.96 5332.45 5282.78
8612.03 -751.697 -759.325 5216.52 5234.13
8614.71 -767.8 -767.428 5153.41 5199.94
8617.39 -782.787 -779.515 5229.89 5262.68
8620.07 -787.957 -753.891 5404.75 5303.25
8622.75 -690.929 -763.955 5275.11 5358.66
8625.43 -812.98 -778.414 5396.13 5341.15
8628.11 -831.333 -809.024 5352.22 5408.05
8630.79 -782.761 -785.36 5475.81 5305.79
8633.47 -741.987 -760.41 5089.36 5257.63
8636.15 -756.482 -767.462 5207.72 5136.75
8638.83 -803.916 -777.937 5113.16 5167.49
8641.5 -773.412 -803.669 5181.59 5260.15
8644.18 -833.679 -782.079 5485.69 5279.39
8646.86 -739.147 -785.27 5170.89 5289.13
8649.54 -782.984 -753.769 5210.81 5202.01
8652.22 -739.176 -755.542 5224.33 5293.61
8654.89 -744.465 -734.008 5445.7 5310.03
8657.57 -718.383 -713.013 5260.06 5196.66
8660.25 -676.192 -674.417 4884.23 4828.8
8662.92 -628.677 -622.765 4342.12 4436.73
8665.6 -563.426 -604.422 4083.83 4213.21
8668.27 -621.164 -618.888 4213.67 4286.76
8670.95 -672.074 -688.89 4562.8 4533.92
8673.62 -773.431 -736.905 4825.3 4815.85
8676.3 -765.21 -764.003 5059.44 4927.2
8678.97 -753.37 -754.989 4896.86 4948.28
8681.65 -746.388 -743.881 4888.56 4922.26
8684.32 -731.885 -734.001 4981.37 4975.77
8687 -723.73 -735.985 5057.38 4976.24
8689.67 -752.34 -731.578 4889.97 4910.77
8692.34 -718.666 -754.215 4784.97 4929.45
8695.02 -791.639 -760.081 5113.43 4917.49
8697.69 -769.938 -774.892 4854.08 5036.92
8700.36 -763.099 -763.783 5143.26 5025.61
8703.03 -758.312 -759.311 5079.5 5124.17
8705.7 -756.522 -758.318 5149.74 5142.42
8708.38 -760.121 -766.824 5198.01 5145.49
8711.05 -783.83 -772.874 5088.71 5201.67
8713.72 -774.671 -760.627 5318.27 5068.54
8716.39 -723.379 -742.565 4798.64 4943.32
8719.06 -729.644 -741.039 4713.03 4848.89
8721.73 -770.093 -763.889 5034.99 4969.8
8724.4 -791.93 -780.133 5161.38 5151.61
8727.07 -778.376 -784.108 5258.45 5168.72
8729.74 -782.017 -759.118 5086.34 5043.13
8732.41 -716.962 -742.675 4784.6 4966.23
8735.08 -729.046 -727.731 5027.74 4934.75
8737.75 -737.185 -734.227 4991.92 4931.21
8740.41 -736.45 -740.464 4773.96 4883.88
8743.08 -747.756 -747.7 4885.76 4885.17
8745.75 -758.895 -733.169 4995.8 4903.71
8748.42 -692.855 -725.189 4829.57 4933.89
8751.08 -723.818 -723.667 4976.31 4906.63
8753.75 -754.327 -709.42 4914 4932.33
8756.42 -650.116 -694.469 4906.69 5153.92
8759.08 -678.965 -690.859 5641.09 5504.78
8761.75 -743.496 -692.743 5966.57 5981.04
8764.42 -655.768 -746.076 6335.46 6246.08
8767.08 -838.964 -740.677 6436.21 6156.58
8769.75 -727.297 -740.728 5698.08 5782.74
8772.41 -655.922 -716.15 5213.93 5243.31
8775.08 -765.229 -724.967 4817.91 5133.17
8777.74 -753.75 -739.9 5367.66 5071.55
8780.4 -700.721 -782.126 5029.06 5075.48
8783.07 -891.906 -798.673 4829.72 4487.84
8785.73 -803.394 -825.287 3604.75 4014.11
8788.4 -780.56 -767.56 3607.87 3665.34
8791.06 -718.727 -728.437 3783.4 3805.65
8793.72 -686.023 -715.345 4025.69 3904.21
8796.38 -741.285 -707.816 3903.53 3890.61
8799.05 -696.139 -714.827 3742.63 3851.4
8801.71 -707.057 -711.565 3908.03 3933.01
8804.37 -731.5 -694.447 4148.37 4055.94
8807.03 -644.784 -668.431 4111.41 4164.44
8809.69 -629.011 -643.003 4233.55 4241.23
8812.35 -655.214 -650.092 4378.74 4363.37
8815.01 -666.053 -676.491 4477.82 4531.96
8817.67 -708.206 -709.956 4739.32 4669.73
8820.33 -755.61 -712.681 4792.06 5150.96
8822.99 -674.229 -646.857 5921.5 5985.13
8825.65 -510.733 -623.012 7241.84 7087.67
8828.31 -684.076 -634.726 8099.67 7709.42
8830.97 -709.369 -692.811 7786.74 7329.24
8833.63 -684.987 -681.686 6101.31 6145.7
8836.29 -650.7 -681.856 4549.04 4834.04
8838.95 -709.88 -682.812 3851.76 3936.94
8841.6 -687.856 -691.403 3410.02 3301.77
8844.26 -676.473 -684.744 2643.53 2916.1
8846.92 -689.904 -676.636 2694.76 2699.42
8849.57 -663.531 -679.024 2759.96 2818.99
8852.23 -683.637 -700.816 3002.25 3138.87
8854.89 -755.28 -704.821 3654.4 3328.54
8857.54 -675.544 -702.955 3328.97 3519.72
8860.2 -678.041 -684.788 3575.77 3634.3
8862.85 -700.779 -670.692 3998.16 3996.05
8865.51 -633.256 -652.465 4414.21 4417.29
8868.16 -623.36 -633.828 4839.5 4646.48
8870.82 -644.869 -639.73 4685.73 4677.47
8873.47 -650.961 -669.964 4507.18 4434.81
8876.13 -714.064 -683.267 4111.51 4235.04
8878.78 -684.776 -681.715 4086.43 4215.69
8881.43 -646.307 -656.395 4449.14 4743.5
8884.09 -638.102 -661.963 5694.91 5582.08
8886.74 -701.481 -670.431 6602.17 6233.69
8889.39 -671.711 -695.604 6403.97 6026.16
8892.04 -713.62 -692.987 5072.34 5055.56
8894.7 -693.631 -707.165 3690.36 3992.23
8897.35 -714.243 -694.762 3213.98 3440.02
8900 -676.413 -692.225 3415.72 3595.56
8902.65 -686.018 -679.715 4156.97 4015.25
8905.3 -676.712 -665.396 4473.06 4230.45
8907.95 -633.458 -682.966 4061.31 4079.68
8910.6 -738.726 -704.627 3704.67 3729.68
8913.25 -741.696 -699.111 3423.07 3631.46
8915.9 -616.911 -651.076 3766.64 4156.28
8918.55 -594.62 -582.569 5279.14 5072.98
8921.2 -536.176 -574.239 6173.15 5794.49
8923.85 -591.922 -613.863 5931.19 5564.65
8926.5 -713.49 -661.058 4589.62 4571.02
8929.15 -677.762 -686.505 3192.25 3514.04
8931.79 -668.264 -654.723 2760.25 2865.67
8934.44 -618.142 -667.765 2644.5 2858.7
8937.09 -716.889 -665.104 3171.34 3038.3
8939.74 -660.281 -697.772 3299.06 3399.98
8942.38 -716.145 -675.12 3729.55 3654.02
8945.03 -648.934 -669.187 3933.44 3849.29
8947.68 -642.482 -633.408 3884.87 3770.69
8950.32 -608.809 -627.682 3493.76 3583.55
8952.97 -631.754 -625.371 3372.02 3679.2
8955.61 -635.551 -609.19 4171.81 4198.9
8958.26 -560.266 -630.86 5052.87 4972.4
8960.9 -696.764 -611.346 5692.51 5215.36
8963.55 -577.008 -645.337 4900.71 4696.35
8966.19 -662.241 -622.411 3495.84 3757.93
8968.84 -627.986 -624.884 2877.24 2995.38
8971.48 -584.426 -601.3 2613.07 2775.89
8974.12 -591.488 -589.697 2837.35 2725.38
8976.77 -593.177 -587.798 2725.73 2839.91
8979.41 -578.728 -591.089 2956.65 2899.6
8982.05 -601.36 -589.539 3016.44 3055.25
8984.69 -588.529 -581.055 3192.67 3215.28
8987.34 -553.276 -574.232 3436.72 3378.68
8989.98 -580.891 -550.455 3506.65 3414.4
8992.62 -517.197 -547.062 3299.82 3257.09
8995.26 -543.098 -536.603 2964.8 3057.05
8997.9 -549.512 -538.806 2906.52 3081.12
9000.54 -523.806 -545.774 3372.04 3409.97
9003.18 -564.002 -578.207 3951.33 3793.11
9005.82 -646.814 -592.931 4055.96 3861.74
9008.46 -567.976 -600.836 3577.93 3525.56
9011.1 -587.718 -560.592 2942.8 3098.78
9013.74 -526.082 -552.773 2775.6 2781.61
9016.38 -544.517 -527.716 2626.44 2695.2
9019.02 -512.549 -526.132 2683.57 2692.4
9021.65 -521.33 -519.338 2767.2 2770.51
9024.29 -524.134 -528.1 2860.77 2857.71
9026.93 -538.836 -542.852 2945.16 2919.3
9029.57 -565.587 -563.174 2951.98 3039.83
9032.2 -585.1 -562.888 3222.33 3141.92
9034.84 -537.979 -594.755 3251.43 3354.39
9037.48 -661.186 -591.303 3589.4 3526.13
9040.11 -574.745 -616.703 3737.56 3667.62
9042.75 -614.177 -597.906 3675.9 3582.75
9045.38 -604.796 -605.778 3334.79 3536.38
9048.02 -598.361 -598.433 3598.45 3573.22
9050.65 -592.144 -600.206 3786.42 3764.11
9053.29 -610.114 -600.708 3907.46 3766.28
9055.92 -599.865 -588.755 3604.97 3522.01
9058.56 -556.286 -595.961 3053.62 3240.27
9061.19 -631.733 -575.878 3062.24 3014.36
9063.82 -539.615 -573.025 2927.22 2977.74
9066.46 -547.727 -494.371 2943.76 2750.15
9069.09 -395.772 -410.506 2379.48 2308.6
9071.72 -288.018 -227.93 1602.55 1327.34
