wavelength spectrum_sum 3smoothed_sum spectrum_optimal 3smoothed_optimal
3505.11 44.6779 38.125 -0.31746 5.13167
3508.03 69.697 62.7183 15.7125 8.67688
3510.95 73.7799 72.1613 10.6356 15.0199
3513.87 73.0069 69.5486 18.7117 7.00225
3516.8 61.859 75.6447 -8.34058 12.0653
3519.72 92.0682 75.4851 25.8249 14.0335
3522.64 72.528 79.0965 24.6162 17.8026
3525.56 72.6931 71.2422 2.96685 5.32965
3528.48 68.5054 63.6503 -11.5941 0.531316
3531.4 49.7524 66.7804 10.2212 2.75781
3534.32 82.0832 58.587 9.64632 10.1471
3537.24 43.9254 69.2986 10.5737 7.46527
3540.17 81.8872 60.8476 2.17579 13.3235
3543.09 56.7301 61.8633 27.2209 11.3334
3546.01 46.9727 62.4478 4.60355 18.8986
3548.93 83.6407 66.5887 24.8715 16.6869
3551.85 69.1527 75.1179 20.5857 23.3902
3554.77 72.5603 67.9992 24.7136 19.9574
3557.69 62.2845 65.6771 14.5729 17.7957
3560.61 62.1864 71.5371 14.1006 28.2097
3563.53 90.1405 91.6526 55.9558 40.0135
3566.45 122.631 103.231 49.9841 41.9032
3569.38 96.921 101.313 19.7696 28.0669
3572.3 84.3885 94.4118 14.447 16.5141
3575.22 101.926 99.3464 15.3256 24.8004
3578.14 111.725 103.389 44.6285 30.7104
3581.06 96.5179 112.304 32.1771 41.4113
3583.98 128.67 110.127 47.4283 35.4985
3586.9 105.195 100.824 26.8902 18.6461
3589.82 68.6091 83.3296 -18.3802 1.62193
3592.74 76.1851 76.6215 -3.64424 -8.05891
3595.66 85.0701 83.8522 -2.1523 2.72739
3598.58 90.3012 104.633 13.9787 12.7953
3601.5 138.527 111.315 26.5594 20.2065
3604.42 105.117 126.111 20.0815 13.6591
3607.35 134.689 115.481 -5.66364 12.3257
3610.27 106.638 110.484 22.5591 13.4418
3613.19 90.1264 100.288 23.4299 17.0288
3616.11 104.1 111.342 5.09746 24.2326
3619.03 139.799 115.764 44.1705 18.8194
3621.95 103.394 112.517 7.19021 17.6281
3624.87 94.3569 102.15 1.52344 3.96639
3627.79 108.699 105.266 3.18552 11.9546
3630.71 112.743 109.531 31.1549 21.2714
3633.63 107.151 100.898 29.4737 33.8962
3636.55 82.801 95.0162 41.06 35.312
3639.47 95.0968 94.5424 35.4022 40.7251
3642.39 105.729 110.202 45.7131 35.9889
3645.31 129.78 115.685 26.8515 32.7288
3648.23 111.546 105.357 25.6219 35.0589
3651.15 74.7441 90.8695 52.7034 41.7107
3654.07 86.3185 83.1745 46.8068 33.7369
3656.99 88.4609 78.4442 1.70041 20.6533
3659.91 60.5531 85.1041 13.4527 32.985
3662.83 106.298 69.0899 83.8019 41.9052
3665.75 40.4184 58.6923 28.461 56.1736
3668.67 29.3603 46.176 56.2581 46.3265
3671.59 68.7493 46.9101 54.2603 46.3206
3674.51 42.6208 51.7367 28.4434 29.299
3677.43 43.8401 47.1105 5.19315 30.2966
3680.35 54.8707 45.8333 57.2533 21.0785
3683.27 38.7892 43.0194 0.789213 34.3442
3686.19 35.3982 38.3428 44.9901 37.0693
3689.11 40.841 41.0851 65.4287 58.4284
3692.03 47.016 38.1261 64.8664 41.479
3694.95 26.5214 24.5796 -5.85814 30.4142
3697.87 0.20131 23.2724 32.2342 23.127
3700.79 43.0945 27.6417 43.005 36.3683
3703.71 39.6292 40.3141 33.8658 45.7233
3706.63 38.2188 40.0108 60.2993 45.6899
3709.55 42.1845 35.093 42.9046 37.788
3712.47 24.8757 57.9105 10.1602 40.927
3715.39 106.671 77.2769 69.7162 59.8179
3718.31 100.284 99.298 99.5774 82.9434
3721.23 90.939 102.811 79.5366 85.818
3724.15 117.211 107.396 78.34 84.7308
3727.07 114.04 111.669 96.3157 83.6909
3729.99 103.756 109.991 76.417 67.9984
3732.91 112.177 112.665 31.2626 63.2562
3735.83 122.062 112.017 82.0891 43.0704
3738.75 101.811 113.259 15.8596 60.5374
3741.67 115.905 117.482 83.6635 63.8583
3744.59 134.732 121.627 92.0519 79.5451
3747.51 114.246 99.2691 62.9198 67.8385
3750.42 48.83 69.8181 48.5437 44.0729
3753.34 46.3788 51.5645 20.7553 32.8737
3756.26 59.4847 60.3197 29.3221 39.6963
3759.18 75.0956 72.5914 69.0114 56.9507
3762.1 83.1938 75.8084 72.5185 63.3341
3765.02 69.1358 58.6444 48.4726 56.8181
3767.94 23.6035 54.4461 49.4633 51.1672
3770.86 70.599 40.1252 55.5658 53.4313
3773.78 26.1731 40.2533 55.2648 55.2636
3776.7 23.9878 22.5899 54.9602 50.9957
3779.62 17.6087 24.8304 42.7621 34.427
3782.54 32.8946 34.9601 5.5586 19.6905
3785.45 54.3771 50.7558 10.7509 15.1016
3788.37 64.9958 62.7148 28.9954 26.9752
3791.29 68.7715 70.571 41.1794 42.9113
3794.21 77.9456 90.4016 58.5592 64.2192
3797.13 124.488 79.8147 92.9191 58.2334
3800.05 37.0109 73.4722 23.2219 56.6569
3802.97 58.9181 46.5285 53.8297 53.0496
3805.89 43.6563 57.7734 82.0971 72.149
3808.81 70.7459 76.3896 80.5203 61.6941
3811.72 114.767 90.8494 22.4651 51.1058
3814.64 87.0355 101.483 50.3319 43.0141
3817.56 102.648 113.119 56.2453 48.5986
3820.48 149.675 134.753 39.2185 43.8878
3823.4 151.936 164.404 36.1996 36.3349
3826.32 191.601 177.784 33.5867 31.2591
3829.24 189.815 198.322 23.991 44.0257
3832.15 213.55 189.534 74.4995 45.7652
3835.07 165.237 181.196 38.8051 50.1428
3837.99 164.8 145.457 37.1238 39.0203
3840.91 106.334 124.465 41.1321 35.076
3843.83 102.261 104.487 26.9721 37.8679
3846.75 104.865 109.443 45.4993 49.5321
3849.66 121.204 119.245 76.1249 48.6769
3852.58 131.668 130.181 24.4064 56.8479
3855.5 137.672 141.998 70.0125 52.7305
3858.42 156.655 135.192 63.7727 63.6141
3861.34 111.248 125.128 57.0571 58.0095
3864.26 107.482 119.945 53.1988 49.5387
3867.17 141.104 118.23 38.3602 36.7116
3870.09 106.103 121.197 18.5759 28.0431
3873.01 116.382 108.488 27.1932 32.4059
3875.93 102.978 117.479 51.4486 26.9564
3878.85 133.077 127.05 2.22731 23.9804
3881.76 145.094 155.96 18.2654 7.99293
3884.68 189.71 175.482 3.48608 13.9047
3887.6 191.643 160.393 19.9627 9.1289
3890.52 99.8262 136.422 3.93788 28.9258
3893.44 117.798 94.3463 62.8769 54.0617
3896.35 65.4152 78.2638 95.3704 63.9829
3899.27 51.5788 67.2357 33.7016 39.6114
3902.19 84.7132 88.1957 -10.2378 25.1699
3905.11 128.295 94.9886 52.046 30.7192
3908.02 71.9573 82.5028 50.3493 64.633
3910.94 47.2559 65.9568 91.5036 59.4746
3913.86 78.6571 87.1204 36.5709 57.3455
3916.78 135.448 134.709 43.9621 70.9674
3919.69 190.023 170.155 132.369 70.451
3922.61 184.995 212.054 35.0217 64.6212
3925.53 261.145 226.025 26.4727 17.9166
3928.45 231.936 269.626 -7.74473 11.2434
3931.36 315.796 291.225 15.0021 6.22517
3934.28 325.942 299.841 11.4182 12.2547
3937.2 257.784 282.273 10.3438 18.7182
3940.12 263.093 214.399 34.3926 21.5786
3943.03 122.319 182.085 19.9994 34.4993
3945.95 160.843 142.697 49.1058 60.065
3948.87 144.93 134.713 111.09 66.991
3951.78 98.3656 110.829 40.7774 65.0257
3954.7 89.1898 105.108 43.2097 5.57137
3957.62 127.769 128.989 -67.2729 -35.3338
3960.54 170.008 171.295 -81.938 -84.9656
3963.45 216.108 226.771 -105.686 -84.7523
3966.37 294.198 262.03 -66.6332 -81.1653
3969.29 275.783 255.23 -71.1768 -44.7944
3972.2 195.71 211.902 3.42688 -30.0329
3975.12 164.213 141.392 -22.3487 -8.50173
3978.04 64.2541 80.9378 -6.58339 -21.9888
3980.95 14.346 46.4707 -37.0343 -7.2042
3983.87 60.8119 28.5379 22.0051 12.7223
3986.79 10.4557 27.4358 53.1961 48.289
3989.7 11.04 8.51356 69.6659 29.7374
3992.62 4.04499 15.0909 -33.6498 59.489
3995.54 30.1877 26.9429 142.451 58.5417
3998.45 46.596 37.5141 66.8241 105.264
4001.37 35.7586 52.1669 106.518 104.84
4004.29 74.146 45.361 141.178 82.2959
4007.2 26.1784 34.6555 -0.80894 73.3618
4010.12 3.64204 18.3016 79.716 70.2751
4013.03 25.0844 20.2941 131.918 122.869
4015.95 32.1558 20.005 156.974 96.6256
4018.87 2.77488 8.11371 0.984205 61.3439
4021.78 -10.5895 -6.88299 26.0731 16.3923
4024.7 -12.8343 -15.0126 22.1196 41.4885
4027.62 -21.6138 6.67449 76.2727 41.0175
4030.53 54.4716 21.896 24.6602 37.861
4033.45 32.8302 30.3912 12.65 22.8274
4036.36 3.87167 13.3568 31.1719 25.0882
4039.28 3.36866 10.0326 31.4427 41.1321
4042.2 22.8574 27.0585 60.7818 56.7996
4045.11 54.9495 43.4557 78.1742 57.0447
4048.03 52.5603 59.6787 32.1781 80.775
4050.94 71.5264 61.6475 131.973 108.138
4053.86 60.8559 52.9465 160.264 140.44
4056.78 26.4572 40.1548 129.083 102.294
4059.69 33.1514 44.2466 17.535 69.9434
4062.61 73.1312 48.3118 63.2125 92.8257
4065.52 38.6528 34.4388 197.73 101.27
4068.44 -8.46768 25.3346 42.8683 123.49
4071.35 45.8187 41.3585 129.872 85.2345
4074.27 86.7246 41.1253 82.9627 68.2465
4077.18 -9.16738 28.1038 -8.09583 37.8068
4080.1 6.75414 -13.5137 38.5534 24.7178
4083.02 -38.1278 -32.9729 43.6957 40.6266
4085.93 -67.5449 -53.4757 39.6306 66.3711
4088.85 -54.7543 -67.96 115.787 58.7128
4091.76 -81.5808 -42.3831 20.7208 48.2198
4094.68 9.18591 -5.77127 8.15147 35.5951
4097.59 55.0811 38.3297 77.9131 43.5701
4100.51 50.7223 41.9484 44.6457 80.8242
4103.42 20.0419 7.71764 119.914 85.5912
4106.34 -47.6112 -19.5482 92.2138 112.898
4109.25 -31.0752 -71.0879 126.566 81.1382
4112.17 -134.577 -85.5615 24.6349 76.9244
4115.08 -91.0322 -101.629 79.5724 68.8179
4118 -79.2768 -94.5411 102.246 123.256
4120.91 -113.314 -85.5002 187.95 126.902
4123.83 -63.9093 -89.936 90.5082 109.432
4126.74 -92.5842 -71.6451 49.8388 89.3271
4129.66 -58.4419 -55.7551 127.634 125.166
4132.57 -16.2393 -41.7919 198.026 153.872
4135.49 -50.6945 -40.8371 135.956 160.549
4138.4 -55.5775 -28.1244 147.666 166.33
4141.31 21.8989 -17.577 215.367 157.308
4144.23 -19.0523 -15.8623 108.892 147.405
4147.14 -50.4336 -39.1224 117.955 115.168
4150.06 -47.8812 -52.9836 118.657 133.594
4152.97 -60.6362 -40.278 164.169 161.856
4155.89 -12.3166 -42.0162 202.741 197.568
4158.8 -53.0957 -34.5925 225.792 225.935
4161.72 -38.3652 -58.1798 249.272 212.047
4164.63 -83.0785 -55.4491 161.078 210.687
4167.54 -44.9035 -48.939 221.712 211.825
4170.46 -18.835 -15.3141 252.683 221.797
4173.37 17.7963 -18.0953 190.996 187.879
4176.29 -53.2471 -23.3171 119.957 174.471
4179.2 -34.5006 -28.0626 212.459 165.861
4182.11 3.55983 -6.71505 165.165 184.699
4185.03 10.7956 -11.8611 176.472 181.719
4187.94 -49.9389 -21.6211 203.519 223.283
4190.86 -25.72 -24.4781 289.856 246.421
4193.77 2.22464 -11.0518 245.888 246.916
4196.68 -9.66009 -7.63262 205.003 243.906
4199.6 -15.4624 -0.251401 280.828 233.656
4202.51 24.3683 -21.4083 215.136 220.901
4205.42 -73.1309 -19.4046 166.738 186.283
4208.34 -9.45113 -33.4203 176.976 209.158
4211.25 -17.6789 -4.14039 283.76 225.223
4214.16 14.7088 -17.3071 214.933 253.65
4217.08 -48.9514 -16.9809 262.256 230.451
4219.99 -16.7001 -23.4276 214.164 232.392
4222.9 -4.6313 19.1526 220.755 210.678
4225.82 78.7892 44.841 197.115 200.673
4228.73 60.3652 33.2899 184.149 186.802
4231.64 -39.2847 15.737 179.143 178.196
4234.56 26.1304 -12.4563 171.295 182.815
4237.47 -24.2145 4.13777 198.006 182.347
4240.38 10.4974 -21.5783 177.739 207.772
4243.3 -51.0177 -24.3563 247.572 224.254
4246.21 -32.5486 -25.9625 247.452 254.263
4249.12 5.67897 1.71754 267.767 247.802
4252.03 32.0223 16.6299 228.187 235.008
4254.95 12.1884 8.12503 209.072 213.69
4257.86 -19.8356 -16.9085 203.81 201.81
4260.77 -43.0782 -46.1266 192.546 199.446
4263.69 -75.466 -44.3295 201.98 226.909
4266.6 -14.4443 3.47483 286.2 229.805
4269.51 100.335 40.6915 201.236 239.489
4272.42 36.1839 57.354 231.03 214.502
4275.34 35.5432 1.68533 211.239 250.03
4278.25 -66.6711 -3.95282 307.821 270.821
4281.16 19.2695 -8.40799 293.405 281.759
4284.07 22.1777 34.5756 244.051 238.946
4286.99 62.2798 35.3998 179.384 228.365
4289.9 21.7418 35.1936 261.661 235.96
4292.81 21.5592 47.1406 266.836 267.851
4295.72 98.121 77.3183 275.054 270.613
4298.63 112.275 118.543 269.949 257.532
4301.55 145.235 126.486 227.594 232.846
4304.46 121.949 149.658 200.994 217.398
4307.37 181.792 131.012 223.606 223.817
4310.28 89.2967 102.926 246.851 254.602
4313.19 37.6903 21.7268 293.35 262.165
4316.11 -61.8066 -40.7518 246.295 231.07
4319.02 -98.1392 -79.7385 153.565 244.499
4321.93 -79.2697 -84.4889 333.636 231.431
4324.84 -76.0577 -84.8241 207.091 256.848
4327.75 -99.1449 -104.002 229.817 208.133
4330.66 -136.805 -97.4203 187.491 209.666
4333.57 -56.3114 -96.2631 211.689 217.371
4336.49 -95.6735 -63.9169 252.934 244.961
4339.4 -39.7659 -47.7294 270.259 268.894
4342.31 -7.74894 -47.504 283.489 254.105
4345.22 -94.9973 -92.5793 208.566 210.046
4348.13 -174.992 -123.208 138.082 178.062
4351.04 -99.6362 -138.555 187.538 151.6
4353.95 -141.038 -141.942 129.179 152.592
4356.87 -185.151 -159.982 141.06 179.356
4359.78 -153.758 -164.778 267.829 225.394
4362.69 -155.427 -189.274 267.294 247.334
4365.6 -258.638 -213.916 206.88 201.843
4368.51 -227.685 -216.242 131.355 177.516
4371.42 -162.404 -177.882 194.312 193.795
4374.33 -143.557 -145.999 255.718 249.296
4377.24 -132.034 -136.303 297.858 252.406
4380.15 -133.316 -80.1181 203.642 239.714
4383.06 24.9961 -67.4338 217.642 192.808
4385.97 -93.9815 -66.2787 157.14 177.814
4388.88 -129.851 -99.7822 158.66 208.156
4391.79 -75.5145 -107.048 308.666 255.436
4394.7 -115.779 -111.879 298.981 290.304
4397.61 -144.343 -136.312 263.265 257.298
4400.53 -148.813 -134.167 209.649 249.149
4403.44 -109.346 -133.317 274.534 245.357
4406.35 -141.791 -119.789 251.886 279.041
4409.26 -108.231 -129.06 310.701 312.94
4412.17 -137.159 -127.679 376.232 368.216
4415.08 -137.648 -172.633 417.714 355.243
4417.99 -243.091 -191.556 271.782 345.132
4420.9 -193.928 -207.497 345.9 338.751
4423.81 -185.471 -186.612 398.572 355.723
4426.72 -180.436 -179.348 322.696 383.964
4429.63 -172.138 -162.841 430.623 408.415
4432.54 -135.947 -176.914 471.926 453.01
4435.44 -222.657 -197.27 456.481 449.495
4438.35 -233.205 -234.848 420.08 415.344
4441.26 -248.682 -257.918 369.473 416.892
4444.17 -291.866 -241.629 461.123 396.249
4447.08 -184.338 -229.069 358.151 408.738
4449.99 -211.001 -192.395 406.941 362.42
4452.9 -181.846 -196.354 322.168 369.779
4455.81 -196.215 -190.096 380.227 327.856
4458.72 -192.227 -196.915 281.174 331.864
4461.63 -202.303 -198.485 334.19 344.237
4464.54 -200.924 -226.873 417.346 343.64
4467.45 -277.394 -253.153 279.384 324.772
4470.36 -281.14 -282.889 277.587 306.514
4473.27 -290.131 -290.838 362.569 310.247
4476.17 -301.241 -295.584 290.583 333.452
4479.08 -295.379 -293.94 347.204 309.438
4481.99 -285.199 -290.557 290.528 289.046
4484.9 -291.094 -297.615 229.408 239.977
4487.81 -316.551 -312.215 199.997 224.209
4490.72 -328.999 -297.289 243.222 254.627
4493.63 -246.316 -310.258 320.663 267.354
4496.54 -355.459 -308.452 238.178 319.037
4499.44 -323.582 -332.552 398.272 317.5
4502.35 -318.616 -343.599 316.05 318.968
4505.26 -388.599 -346.486 242.584 273.085
4508.17 -332.243 -369.414 260.623 277.479
4511.08 -387.401 -344.6 329.231 300.514
4513.98 -314.155 -348.486 311.689 341.599
4516.89 -343.902 -335.547 383.876 341.121
4519.8 -348.584 -351.914 327.798 318.672
4522.71 -363.254 -320.119 244.344 293.588
4525.62 -248.517 -296.86 308.624 291.951
4528.52 -278.808 -277.14 322.886 297.96
4531.43 -304.095 -289.359 262.371 280.075
4534.34 -285.173 -287.617 254.967 254.925
4537.25 -273.584 -279.846 247.437 290.11
4540.16 -280.782 -302.95 367.927 320.963
4543.06 -354.483 -307.049 347.524 341.296
4545.97 -285.881 -326.495 308.436 366.562
4548.88 -339.122 -283.497 443.726 374.502
4551.79 -225.488 -287.046 371.345 389.464
4554.69 -296.526 -275.594 353.323 383.483
4557.6 -304.767 -314.744 425.781 391.158
4560.51 -342.939 -331.416 394.369 370.002
4563.42 -346.543 -345.001 289.856 308.759
4566.32 -345.521 -334.161 242.052 298.556
4569.23 -310.42 -327.711 363.758 337.447
4572.14 -327.192 -326.14 406.529 368.595
4575.04 -340.807 -348.338 335.497 342.327
4577.95 -377.014 -347.811 284.955 311.841
4580.86 -325.611 -352.508 315.07 340.327
4583.76 -354.898 -348.543 420.955 354.347
4586.67 -365.12 -374.098 327.015 430.314
4589.58 -402.277 -359.516 542.973 457.345
4592.48 -311.152 -334.417 502.047 475.235
4595.39 -289.824 -337.364 380.686 418.152
4598.3 -411.117 -328.177 371.721 375.055
4601.2 -283.589 -321.933 372.757 381.036
4604.11 -271.094 -305.31 398.628 392.568
4607.02 -361.246 -361.723 406.32 407.636
4609.92 -452.827 -387.695 417.959 423.762
4612.83 -349.011 -401.585 447.007 408.256
4615.73 -402.915 -368.79 359.803 387.952
4618.64 -354.443 -378.588 357.046 352.284
4621.55 -378.405 -391.153 340.003 368.429
4624.45 -440.61 -414.375 408.24 395.944
4627.36 -424.111 -409.297 439.588 400.941
4630.26 -363.171 -395.786 354.996 379.116
4633.17 -400.076 -403.782 342.763 310.082
4636.08 -448.099 -396.396 232.487 301.057
4638.98 -341.013 -401.816 327.92 292.234
4641.89 -416.337 -385.98 316.294 337.688
4644.79 -400.59 -379.365 368.849 342.631
4647.7 -321.168 -362.497 342.75 362.769
4650.6 -365.734 -317.347 376.708 398.461
4653.51 -265.14 -332.358 475.924 442.665
4656.41 -366.202 -335.174 475.363 444.375
4659.32 -374.18 -370.788 381.838 423.386
4662.22 -371.983 -380.576 412.958 391.692
4665.13 -395.565 -371.579 380.28 369.878
4668.03 -347.19 -369.365 316.395 336.221
4670.94 -365.339 -368.168 311.99 340.819
4673.84 -391.975 -383.387 394.073 351.874
4676.75 -392.848 -394.882 349.56 377.339
4679.65 -399.823 -386.87 388.384 379.444
4682.56 -367.94 -367.722 400.387 397.237
4685.46 -335.402 -364.189 402.941 390.406
4688.37 -389.224 -372.413 367.891 393.663
4691.27 -392.613 -399.913 410.156 387.721
4694.18 -417.902 -422.861 385.117 360.187
4697.08 -458.07 -445.046 285.289 321.525
4699.98 -459.165 -438.971 294.168 299.856
4702.89 -399.678 -419.742 320.112 298.054
4705.79 -400.383 -353.392 279.883 321.783
4708.7 -260.116 -343.765 365.354 340.21
4711.6 -370.796 -376.379 375.393 366.178
4714.5 -498.224 -442.209 357.786 335.943
4717.41 -457.606 -465.984 274.648 301.765
4720.31 -442.123 -444.342 272.86 268.422
4723.22 -433.297 -426.928 257.756 283.262
4726.12 -405.364 -431.647 319.17 305.547
4729.02 -456.28 -422.541 339.715 339.199
4731.93 -405.98 -442.637 358.711 339.889
4734.83 -465.653 -419.965 321.242 314.104
4737.73 -388.262 -449.003 262.359 314.636
4740.64 -493.095 -440.584 360.309 303.137
4743.54 -440.397 -456.71 286.743 321.552
4746.44 -436.637 -429.04 317.604 331.778
4749.35 -410.085 -425.03 390.987 364.415
4752.25 -428.368 -443.834 384.654 358.518
4755.15 -493.048 -448.951 299.913 299.061
4758.06 -425.439 -458.284 212.616 231.032
4760.96 -456.365 -438.567 180.566 181.096
4763.86 -433.898 -437.132 150.106 217.162
4766.76 -421.134 -429.935 320.812 273.443
4769.67 -434.773 -431.899 349.411 370.585
4772.57 -439.789 -455.434 441.531 371.903
4775.47 -491.741 -463.949 324.769 410.985
4778.38 -460.316 -513.006 466.656 360.789
4781.28 -586.962 -508.87 290.941 341.847
4784.18 -479.331 -503.849 267.945 297.536
4787.08 -445.253 -469.733 333.721 262.248
4789.98 -484.613 -492.536 185.077 249.006
4792.89 -547.741 -507.681 228.219 233.834
4795.79 -490.689 -504.675 288.205 267.332
4798.69 -475.596 -483.793 285.572 303.146
4801.59 -485.094 -458.822 335.66 313.883
4804.49 -415.775 -455.543 320.416 302.861
4807.4 -465.761 -455.483 252.506 287.768
4810.3 -484.914 -494.414 290.383 280.1
4813.2 -532.566 -517.638 297.41 265.18
4816.1 -535.436 -527.739 207.747 262.858
4819 -515.217 -518.613 283.416 277.102
4821.9 -505.187 -520.268 340.144 318.699
4824.81 -540.399 -518.075 332.538 365.617
4827.71 -508.638 -516.439 424.169 337.126
4830.61 -500.279 -510.645 254.671 323.087
4833.51 -523.017 -510.991 290.423 260.254
4836.41 -509.676 -526.547 235.667 269.171
4839.31 -546.949 -551.314 281.422 300.038
4842.21 -597.318 -674.383 383.023 360.667
4845.11 -878.883 -771.666 417.556 360.369
4848.01 -838.797 -848.999 280.528 367.237
4850.92 -829.316 -817.304 403.626 339.826
4853.82 -783.799 -753.765 335.322 347.954
4856.72 -648.179 -668.222 304.914 319.105
4859.62 -572.688 -588.234 317.08 297.684
4862.52 -543.837 -555.95 271.059 294.775
4865.42 -551.327 -559.59 296.188 307.947
4868.32 -583.605 -585.686 356.594 315.866
4871.22 -622.124 -640.849 294.816 317.555
4874.12 -716.816 -702.739 301.254 302.086
4877.02 -769.276 -764.517 310.189 279.063
4879.92 -807.459 -789.841 225.747 262.317
4882.82 -792.787 -797.393 251.015 229.616
4885.72 -791.933 -786.705 212.086 258.729
4888.62 -775.395 -764.037 313.087 288.216
4891.52 -724.782 -773.727 339.476 349.379
4894.42 -821.005 -796.408 395.574 336.838
4897.32 -843.437 -834.15 275.466 345.193
4900.22 -838.008 -843.598 364.54 315.419
4903.12 -849.35 -875.19 306.251 304.773
4906.02 -938.212 -890.142 243.529 292.111
4908.92 -882.863 -888.635 326.552 283.343
4911.81 -844.829 -848.753 279.95 309.137
4914.71 -818.567 -829.094 320.908 291.859
4917.61 -823.885 -797.878 274.718 290.331
4920.51 -751.183 -755.145 275.366 283.829
4923.41 -690.368 -750.705 301.404 304.126
4926.31 -810.564 -790.831 335.608 301.119
4929.21 -871.561 -826.705 266.346 304.842
4932.11 -797.991 -839.77 312.571 268.381
4935.01 -849.757 -794.297 226.226 269.091
4937.91 -735.143 -792.054 268.477 260.8
4940.8 -791.263 -800.63 287.697 313.116
4943.7 -875.483 -856.459 383.175 315.155
4946.6 -902.631 -874.302 274.595 320.529
4949.5 -844.794 -866.686 303.819 276.124
4952.4 -852.634 -871.149 249.96 256.986
4955.3 -916.02 -864.923 217.18 233.743
4958.19 -826.116 -859.053 234.091 222.653
4961.09 -835.022 -841.989 216.688 265.702
4963.99 -864.827 -862.614 346.329 292.485
4966.89 -887.992 -891.595 314.437 326.299
4969.78 -921.966 -911.701 318.131 303.789
4972.68 -925.144 -921.16 278.797 296.295
4975.58 -916.369 -906.281 291.956 303.163
4978.48 -877.329 -880.698 338.735 278.482
4981.38 -848.395 -829.449 204.757 274.609
4984.27 -762.622 -803.459 280.336 221.299
4987.17 -799.361 -782.506 178.804 251.704
4990.07 -785.534 -808.602 295.973 229.239
4992.96 -840.911 -816.195 212.941 278.607
4995.86 -822.14 -844.028 326.909 288.553
4998.76 -869.031 -845.213 325.808 314.382
5001.66 -844.468 -840.705 290.429 302.55
5004.55 -808.616 -825.411 291.414 295.832
5007.45 -823.148 -807.778 305.652 276.583
5010.35 -791.568 -800.698 232.684 276.418
5013.24 -787.377 -783.093 290.917 233.358
5016.14 -770.334 -767.385 176.474 238.799
5019.04 -744.445 -761.485 249.006 235.675
5021.93 -769.676 -766.969 281.544 313.897
5024.83 -786.787 -798.65 411.142 342.133
5027.72 -839.486 -815.444 333.712 341.399
5030.62 -820.059 -827.079 279.344 279.59
5033.52 -821.691 -883.461 225.714 263.966
5036.41 -1008.63 -971.535 286.84 259.432
5039.31 -1084.28 -987.958 265.742 260.109
5042.2 -870.959 -936.926 227.745 227.491
5045.1 -855.538 -852.571 188.986 228.058
5048 -831.216 -839.298 267.444 214.817
5050.89 -831.139 -849.214 188.02 241.659
5053.79 -885.286 -865.494 269.514 261.132
5056.68 -880.058 -893.37 325.863 294.884
5059.58 -914.765 -894.974 289.276 305.747
5062.47 -890.099 -922.516 302.101 287.601
5065.37 -962.684 -897.846 271.426 281.929
5068.26 -840.755 -895.152 272.261 268.791
5071.16 -882.018 -874.283 262.685 265.293
5074.05 -900.074 -887.057 260.933 260.44
5076.95 -879.079 -878.404 257.702 251.253
5079.84 -856.06 -854.833 235.122 243.849
5082.74 -829.359 -825.861 238.723 249.838
5085.63 -792.163 -813.689 275.671 257.082
5088.53 -819.544 -838.649 256.853 280.914
5091.42 -904.24 -872.389 310.22 292.145
5094.32 -893.382 -912.046 309.363 313.971
5097.21 -938.516 -887.949 322.331 320.941
5100.1 -831.948 -876.056 331.129 288.604
5103 -857.705 -831.661 212.351 267.116
5105.89 -805.33 -856.363 257.869 254.204
5108.79 -906.054 -845.684 292.391 305.208
5111.68 -825.67 -859.289 365.364 328.105
5114.57 -846.144 -874.405 326.56 331.597
5117.47 -951.4 -920.95 302.866 331.045
5120.36 -965.306 -943.957 363.708 307.142
5123.26 -915.164 -935.538 254.854 298.722
5126.15 -926.143 -860.491 277.604 291.667
5129.04 -740.165 -835.691 342.543 296.244
5131.94 -840.764 -827.96 268.586 270.98
5134.83 -902.951 -879.309 201.812 249.451
5137.72 -894.211 -858.94 277.953 245.716
5140.62 -779.659 -844.826 257.384 274.589
5143.51 -860.609 -833.427 288.43 280.072
5146.4 -860.012 -852.58 294.401 307.088
5149.29 -837.118 -845.875 338.431 316.805
5152.19 -840.495 -836.928 317.582 309.045
5155.08 -833.172 -851.226 271.121 318.994
5157.97 -880.011 -888.891 368.279 328.166
5160.86 -953.492 -907.924 345.099 341.394
5163.76 -890.269 -852.667 310.806 333.817
5166.65 -714.24 -753.051 345.545 317.362
5169.54 -654.645 -651.945 295.735 309.594
5172.43 -586.949 -627.954 287.502 305.89
5175.33 -642.268 -650.58 334.433 319.792
5178.22 -722.523 -688.86 337.442 317.178
5181.11 -701.788 -692.654 279.659 301.759
5184 -653.65 -658.909 288.176 271.638
5186.89 -621.289 -664.907 247.08 244.075
5189.79 -719.781 -718.58 196.969 249.871
5192.68 -814.67 -773.185 305.563 280.056
5195.57 -785.104 -811.297 337.635 324.334
5198.46 -834.118 -822.07 329.803 341.36
5201.35 -846.988 -810.365 356.641 361.206
5204.24 -749.988 -783.612 397.174 358.323
5207.13 -753.861 -772.313 321.153 357.598
5210.02 -813.091 -811.255 354.469 328.096
5212.92 -866.813 -848.727 308.667 337.712
5215.81 -866.275 -864.458 350 325.637
5218.7 -860.287 -898.81 318.244 329.041
5221.59 -969.869 -926.162 318.879 325.209
5224.48 -948.33 -941.76 338.504 331.878
5227.37 -907.081 -890.397 338.25 291.326
5230.26 -815.779 -859.431 197.226 250.711
5233.15 -855.432 -850.931 216.658 220.41
5236.04 -881.583 -880.518 247.346 252.833
5238.93 -904.541 -901.131 294.496 276.835
5241.82 -917.271 -924.638 288.664 317.458
5244.71 -952.103 -930.231 369.213 316.54
5247.6 -921.318 -942.645 291.744 328.064
5250.49 -954.514 -916.822 323.236 302.874
5253.38 -874.634 -893.823 293.643 313.14
5256.27 -852.32 -884.364 322.541 313.537
5259.16 -926.14 -888.242 324.426 291.608
5262.05 -886.266 -875.235 227.857 292.666
5264.94 -813.299 -832.157 325.716 308.541
5267.83 -796.907 -801.916 372.049 326.182
5270.72 -795.543 -773.592 280.782 353.518
5273.61 -728.327 -817.147 407.724 339.332
5276.5 -927.571 -845.11 329.491 378.275
5279.38 -879.432 -883.982 397.612 342.275
5282.27 -844.942 -858.522 299.722 356.769
5285.16 -851.194 -880.463 372.974 345.506
5288.05 -945.253 -912.518 363.823 354.257
5290.94 -941.106 -949.563 325.975 366.8
5293.83 -962.328 -957.024 410.603 393.266
5296.72 -967.638 -977.103 443.219 399.391
5299.6 -1001.34 -979.112 344.352 382.229
5302.49 -968.356 -977.264 359.114 319.238
5305.38 -962.092 -974.919 254.248 281.363
5308.27 -994.308 -998.008 230.727 237.676
5311.16 -1037.62 -1007.52 228.055 141.496
5314.05 -990.64 -1024.01 -34.294 13.1624
5316.93 -1043.78 -988.443 -154.273 -111.893
5319.82 -930.908 -982.296 -147.111 -91.0465
5322.71 -972.201 -924.186 28.2448 35.6511
5325.6 -869.45 -921.677 225.819 52.3661
5328.48 -923.381 -901.242 -96.9658 -38.7813
5331.37 -910.896 -916.086 -245.197 -182.702
5334.26 -913.981 -920.688 -205.944 -253.976
5337.15 -937.187 -908.51 -310.787 -226.33
5340.03 -874.361 -892.106 -162.258 -203.645
5342.92 -864.771 -887.259 -137.889 -165.188
5345.81 -922.645 -896.882 -195.417 -156.278
5348.69 -903.229 -934.665 -135.526 -169.965
5351.58 -978.12 -956.466 -178.952 -183.289
5354.47 -988.048 -1008.13 -235.389 -217.683
5357.35 -1058.23 -1025.14 -238.708 -189.97
5360.24 -1029.15 -1023.7 -95.8122 -37.8415
5363.13 -983.728 -1011.2 220.995 211.674
5366.01 -1020.73 -979.121 509.838 360.54
5368.9 -932.908 -948.38 350.787 404.552
5371.78 -891.507 -923.844 353.031 360.876
5374.67 -947.119 -911.988 378.811 375.497
5377.56 -897.34 -933.194 394.649 388.989
5380.44 -955.124 -966.404 393.508 353.281
5383.33 -1046.75 -1018.37 271.687 333.362
5386.21 -1053.24 -1029.32 334.892 340.698
5389.1 -987.984 -1003.93 415.516 341.276
5391.98 -970.556 -972.415 273.419 300.248
5394.87 -958.704 -941.011 211.808 265.965
5397.75 -893.772 -917.979 312.666 264.211
5400.64 -901.462 -911.285 268.157 284.675
5403.53 -938.62 -909.033 273.202 268.404
5406.41 -887.017 -872.776 263.853 289.135
5409.29 -792.691 -854.523 330.349 317.945
5412.18 -883.862 -864.373 359.632 354.911
5415.06 -916.567 -929.517 374.752 331.649
5417.95 -988.121 -947.675 260.563 333.578
5420.83 -938.335 -946.662 365.418 325.365
5423.72 -913.528 -933.655 350.114 354.929
5426.6 -949.103 -955.697 349.254 336.515
5429.49 -1004.46 -971.134 310.176 339.891
5432.37 -959.84 -958.451 360.242 313.759
5435.25 -911.052 -951.864 270.857 335.379
5438.14 -984.701 -971.592 375.037 321.685
5441.02 -1019.02 -995.648 319.16 296.438
5443.91 -983.218 -974.283 195.115 252.677
5446.79 -920.608 -968.242 243.754 240.648
5449.67 -1000.9 -952.243 283.075 245.299
5452.56 -935.221 -970.687 209.068 319.479
5455.44 -975.939 -948.545 466.294 320.265
5458.32 -934.476 -992.956 285.432 359.092
5461.21 -1068.45 -997.048 325.55 278.094
5464.09 -988.215 -997.599 223.3 327.075
5466.97 -936.128 -987.641 432.375 329.79
5469.85 -1038.58 -992.934 333.695 370.986
5472.74 -1004.09 -1013.06 346.886 348.686
5475.62 -996.499 -964.769 365.475 372.996
5478.5 -893.714 -955.806 406.627 388.464
5481.39 -977.206 -964.751 393.289 379.856
5484.27 -1023.33 -1005.55 339.651 340.949
5487.15 -1016.11 -1026.68 289.907 293.793
5490.03 -1040.6 -1009.74 251.82 290.907
5492.91 -972.516 -1005.54 330.994 292.166
5495.8 -1003.49 -1009.92 293.684 350.324
5498.68 -1053.76 -1030.96 426.294 375.467
5501.56 -1035.63 -1041.32 406.423 364.507
5504.44 -1034.57 -1003.78 260.805 300.514
5507.32 -941.142 -985.487 234.314 268.597
5510.2 -980.746 -966.008 310.671 315.337
5513.09 -976.137 -1007.34 401.025 365.444
5515.97 -1065.12 -1026.98 384.635 363.128
5518.85 -1039.69 -1052.96 303.725 331.76
5521.73 -1054.07 -1048.13 306.921 334.863
5524.61 -1050.63 -1038.69 393.945 359.725
5527.49 -1011.36 -1033.75 378.31 356.938
5530.37 -1039.25 -1040.23 298.558 355.943
5533.25 -1070.07 -1036.19 390.96 354.652
5536.13 -999.236 -1035.9 374.439 376.816
5539.01 -1038.41 -1015.5 365.049 356.203
5541.89 -1008.86 -1009.88 329.12 380.488
5544.77 -982.362 -1008.9 447.296 361.899
5547.65 -1035.47 -1002.66 309.282 351.983
5550.53 -990.158 -1011.25 299.372 313.347
5553.41 -1008.13 -1013.05 331.387 325.876
5556.29 -1040.87 -1034.75 346.869 331.445
5559.17 -1055.25 -1030.18 316.08 362.53
5562.05 -994.41 -1021.42 424.641 344.071
5564.93 -1014.6 -1000.09 291.492 360.961
5567.81 -991.265 -993.285 366.751 444.097
5570.69 -973.984 -986.351 674.049 740.609
5573.57 -993.806 -975.254 1181.03 1200.21
5576.45 -957.972 -970.591 1745.54 1409.98
5579.33 -959.994 -980.607 1303.36 1085.81
5582.21 -1023.85 -984.587 208.528 408.531
5585.09 -969.912 -968.116 -286.296 -191.796
5587.97 -910.58 -957.702 -497.619 -399.541
5590.84 -992.612 -925.868 -414.709 -332.304
5593.72 -874.412 -953.12 -84.5831 -180.61
5596.6 -992.337 -943.911 -42.5378 -46.0322
5599.48 -964.984 -978.525 -10.9758 -7.5522
5602.36 -978.254 -950.596 30.857 65.5962
5605.24 -908.551 -978.737 176.907 130.079
5608.11 -1049.41 -1007.13 182.472 226.976
5610.99 -1063.44 -1037.38 321.548 266.476
5613.87 -999.291 -1021.3 295.409 317.977
5616.75 -1001.18 -1002.26 336.974 291.171
5619.62 -1006.31 -1001.71 241.131 309.682
5622.5 -997.633 -1007.1 350.941 326.318
5625.38 -1017.36 -1024.45 386.88 367.843
5628.26 -1058.36 -1041.81 365.706 418.999
5631.13 -1049.7 -1050.17 504.409 417.952
5634.01 -1042.46 -1029.87 383.74 442.868
5636.89 -997.441 -1013.91 440.456 433.734
5639.77 -1001.82 -1019.98 477.005 416.881
5642.64 -1060.67 -1030.92 333.182 421.256
5645.52 -1030.26 -1078.27 453.58 409.155
5648.4 -1143.87 -1069.37 440.704 426.684
5651.27 -1033.98 -1063.22 385.769 395.408
5654.15 -1011.8 -1016.94 359.75 428
5657.02 -1005.03 -978.995 538.482 492.01
5659.9 -920.15 -962.878 577.799 532.946
5662.78 -963.451 -965.495 482.558 483.924
5665.65 -1012.88 -981.156 391.416 440.017
5668.53 -967.133 -989.208 446.077 430.872
5671.4 -987.607 -987.822 455.123 463.701
5674.28 -1008.73 -1005.72 489.904 453.704
5677.15 -1020.83 -1000.32 416.085 455.097
5680.03 -971.413 -1006.22 459.303 418.893
5682.91 -1026.41 -1029.29 381.292 433.261
5685.78 -1090.03 -1039.04 459.187 429.527
5688.66 -1000.66 -1019.17 448.102 427.805
5691.53 -966.806 -1006.5 376.126 396.395
5694.41 -1052.03 -1009.53 364.956 411.081
5697.28 -1009.77 -1023.89 492.161 419.796
5700.15 -1009.88 -1020.64 402.272 437.92
5703.03 -1042.27 -1005.07 419.327 408.739
5705.9 -963.051 -961.979 404.617 397.839
5708.78 -880.619 -916.627 369.572 386.785
5711.65 -906.211 -922.433 386.166 403.642
5714.53 -980.471 -949.258 455.188 432.91
5717.4 -961.093 -986.516 457.377 480.159
5720.27 -1017.99 -990.805 527.912 500.36
5723.15 -993.335 -1033.67 515.792 480.236
5726.02 -1089.7 -1031.49 397.003 474.864
5728.9 -1011.44 -1041.47 511.797 438.121
5731.77 -1023.27 -1005.48 405.564 444.823
5734.64 -981.733 -1022.57 417.107 391.866
5737.52 -1062.7 -1015.22 352.927 427.742
5740.39 -1001.22 -1026.35 513.192 462.599
5743.26 -1015.14 -1034.21 521.678 459.636
5746.13 -1086.27 -1043.73 344.038 434.593
5749.01 -1029.77 -1034.93 438.064 425.009
5751.88 -988.758 -1027.44 492.926 470.939
5754.75 -1063.8 -1017.08 481.828 475.897
5757.62 -998.683 -1017.21 452.938 444.339
5760.5 -989.143 -988.299 398.252 419.211
5763.37 -977.07 -983.979 406.442 437.293
5766.24 -985.724 -987.442 507.185 485.432
5769.11 -999.531 -981.978 542.668 530.243
5771.99 -960.679 -982.773 540.874 493.604
5774.86 -988.11 -991.174 397.271 446.059
5777.73 -1024.73 -1009.07 400.033 404.231
5780.6 -1014.37 -999.966 415.39 447.134
5783.47 -960.8 -991.89 525.978 473.021
5786.34 -1000.5 -996.26 477.694 501.87
5789.21 -1027.48 -999.81 501.939 498.127
5792.09 -971.451 -984.228 514.747 485.464
5794.96 -953.757 -983.921 439.705 480.524
5797.83 -1026.56 -1005.95 487.118 481.075
5800.7 -1037.54 -1040.92 516.402 482.988
5803.57 -1058.65 -1026.77 445.443 473.583
5806.44 -984.128 -1005.61 458.904 450.311
5809.31 -974.063 -988.146 446.584 466.086
5812.18 -1006.25 -1002.11 492.77 468.424
5815.05 -1026.03 -1036.64 465.917 458.496
5817.92 -1077.64 -1050.56 416.799 432.477
5820.79 -1048 -1042.2 414.713 451.911
5823.66 -1000.94 -1029.59 524.22 474.654
5826.53 -1039.81 -1008.69 485.029 479.145
5829.4 -985.327 -1025.45 428.185 490.572
5832.27 -1051.21 -1024.42 558.502 483.553
5835.14 -1036.73 -1047.1 463.971 461.52
5838.01 -1053.36 -1025.68 362.087 426.614
5840.88 -986.951 -1033.34 453.786 451.785
5843.75 -1059.69 -1042.24 539.481 482.077
5846.61 -1080.09 -1069.69 452.964 488.154
5849.48 -1069.3 -1070.78 472.015 481.659
5852.35 -1062.94 -1032.34 519.998 489.197
5855.22 -964.764 -994.062 475.577 507.577
5858.09 -954.477 -994.547 527.154 502.709
5860.96 -1064.4 -992.883 505.396 545.402
5863.83 -959.772 -1017.03 603.655 553.301
5866.69 -1026.93 -1019.47 550.853 570.646
5869.56 -1071.7 -1024.77 557.428 542.818
5872.43 -975.675 -1011.69 520.173 510.145
5875.3 -987.704 -986.671 452.832 487.01
5878.17 -996.634 -1009.54 488.025 493.458
5881.03 -1044.29 -987.334 539.518 605.483
5883.9 -921.083 -975.278 788.907 767.445
5886.77 -960.466 -907.525 973.911 1012.11
5889.64 -841.024 -891.69 1273.52 1117.6
5892.5 -873.579 -857.056 1105.38 1085.61
5895.37 -856.566 -852.965 877.947 848.726
5898.24 -828.75 -984.841 562.854 538.356
5901.1 -1269.21 -1091.27 174.268 285.239
5903.97 -1175.86 -1233.04 118.595 110.04
5906.84 -1254.06 -1248.09 37.2572 74.3954
5909.7 -1314.33 -1300.07 67.3343 63.6619
5912.57 -1331.82 -1312.89 86.3943 118.281
5915.43 -1292.52 -1305.96 201.114 144.124
5918.3 -1293.53 -1293.12 144.865 217.944
5921.17 -1293.3 -1298.45 307.853 276.023
5924.03 -1308.53 -1317.52 375.349 380.723
5926.9 -1350.73 -1325.95 458.968 460.39
5929.76 -1318.6 -1313.92 546.852 536.426
5932.63 -1272.44 -1314.65 603.458 547.656
5935.49 -1352.91 -1319.22 492.658 487.01
5938.36 -1332.31 -1315.83 364.916 415.496
5941.22 -1262.28 -1300.09 388.916 435.767
5944.09 -1305.69 -1278.19 553.47 485.416
5946.95 -1266.61 -1291.31 513.863 513.93
5949.82 -1301.63 -1299.74 474.457 490.419
5952.68 -1330.98 -1311.16 482.939 506.245
5955.55 -1300.88 -1327.51 561.338 490.923
5958.41 -1350.67 -1302.29 428.492 475.03
5961.28 -1255.33 -1310.36 435.26 411.905
5964.14 -1325.07 -1281.26 371.963 430.252
5967.01 -1263.38 -1291.65 483.532 447.442
5969.87 -1286.49 -1288.55 486.83 541.713
5972.73 -1315.77 -1304.14 654.778 559.929
5975.6 -1310.17 -1293.91 538.178 553.826
5978.46 -1255.8 -1296.86 468.523 468.648
5981.32 -1324.61 -1284.73 399.241 418.036
5984.19 -1273.78 -1281.69 386.343 434.117
5987.05 -1246.68 -1272.93 516.767 462.033
5989.91 -1298.32 -1282.53 482.988 515.691
5992.78 -1302.6 -1289.16 547.316 494.412
5995.64 -1266.56 -1276.81 452.933 478.717
5998.5 -1261.28 -1283.96 435.901 447.25
6001.36 -1324.04 -1289.29 452.917 474.484
6004.23 -1282.55 -1295.55 534.635 465.02
6007.09 -1280.07 -1263.13 407.508 483.511
6009.95 -1226.78 -1262.91 508.391 458.104
6012.81 -1281.87 -1262.34 458.412 471.157
6015.67 -1278.38 -1250.81 446.667 479.313
6018.54 -1192.18 -1238.28 532.86 479.802
6021.4 -1244.29 -1199.47 459.88 512.967
6024.26 -1161.94 -1189.89 546.162 500.597
6027.12 -1163.45 -1192.95 495.75 514.347
6029.98 -1253.47 -1191.64 501.129 533.021
6032.84 -1158.01 -1239.67 602.183 539.753
6035.7 -1307.55 -1262.03 515.948 539.955
6038.57 -1320.52 -1303.05 501.734 504.867
6041.43 -1281.09 -1310.74 496.921 480.154
6044.29 -1330.6 -1299.64 441.808 482.701
6047.15 -1287.23 -1319 509.374 477.141
6050.01 -1339.17 -1300.93 480.243 504.966
6052.87 -1276.38 -1265.07 525.281 485.484
6055.73 -1179.66 -1218.56 450.928 506.372
6058.59 -1199.64 -1222.89 542.905 516.653
6061.45 -1289.37 -1233.76 556.127 542.415
6064.31 -1212.25 -1225.77 528.214 534.596
6067.17 -1175.69 -1225.19 519.448 534.748
6070.03 -1287.61 -1245.72 556.581 499.536
6072.89 -1273.85 -1298.31 422.579 500.96
6075.75 -1333.46 -1357.43 523.718 451.869
6078.61 -1464.97 -1355.24 409.311 512.247
6081.47 -1267.3 -1318.61 603.714 547.681
6084.32 -1223.55 -1254.71 630.02 589.109
6087.18 -1273.28 -1244.11 533.595 574.59
6090.04 -1235.5 -1239.2 560.156 550.179
6092.9 -1208.82 -1229.26 556.786 571.192
6095.76 -1243.46 -1230.04 596.635 562.273
6098.62 -1237.86 -1248.09 533.397 586.943
6101.48 -1262.96 -1225.67 630.797 570.263
6104.33 -1176.2 -1225.23 546.594 592.387
6107.19 -1236.54 -1212 599.771 596.335
6110.05 -1223.25 -1238.07 642.641 593.617
6112.91 -1254.41 -1243.49 538.438 559.295
6115.76 -1252.8 -1239.33 496.806 544.281
6118.62 -1210.78 -1233.29 597.598 589.238
6121.48 -1236.29 -1231.42 673.31 618.172
6124.34 -1247.18 -1221.05 583.606 577.343
6127.19 -1179.67 -1203.53 475.113 517.744
6130.05 -1183.72 -1174.68 494.513 504.097
6132.91 -1160.66 -1179.97 542.665 520.447
6135.76 -1195.55 -1195.42 524.164 588.648
6138.62 -1230.06 -1216.04 699.117 623.187
6141.48 -1222.52 -1210.99 646.281 656.872
6144.33 -1180.39 -1208.25 625.219 633.566
6147.19 -1221.84 -1196.37 629.199 631.131
6150.04 -1186.88 -1197.7 638.975 588.495
6152.9 -1184.37 -1206.24 497.31 587.651
6155.76 -1247.49 -1194.22 626.669 524.536
6158.61 -1150.81 -1173.64 449.629 519.725
6161.47 -1122.63 -1128.72 482.876 532.948
6164.32 -1112.7 -1126.35 666.34 581.699
6167.18 -1143.73 -1115.77 595.881 649.592
6170.03 -1090.88 -1099.81 686.554 630.711
6172.89 -1064.83 -1107.81 609.699 650.791
6175.74 -1167.71 -1129.4 656.12 621.582
6178.6 -1155.65 -1174.3 598.928 592.515
6181.45 -1199.54 -1170.01 522.498 565.71
6184.31 -1154.85 -1173.75 575.704 550.6
6187.16 -1166.86 -1155.06 553.599 539.654
6190.02 -1143.46 -1151.39 489.658 497.695
6192.87 -1143.87 -1149.53 449.826 518.815
6195.72 -1161.27 -1152.13 616.961 549.868
6198.58 -1151.24 -1180.34 582.818 604.912
6201.43 -1228.51 -1176.21 614.957 602.72
6204.28 -1148.87 -1211.48 610.384 624.528
6207.14 -1257.07 -1194.09 648.241 591.965
6209.99 -1176.33 -1182.21 517.27 619.023
6212.84 -1113.24 -1157.2 691.557 606.267
6215.7 -1182.05 -1153.3 609.974 601.771
6218.55 -1164.62 -1167.32 503.78 585.665
6221.4 -1155.3 -1174 643.24 563.97
6224.25 -1202.08 -1160.41 544.888 610.872
6227.11 -1123.86 -1158.9 644.489 621.963
6229.96 -1150.75 -1113.21 676.511 712.208
6232.81 -1065.02 -1127.79 815.625 786.457
6235.66 -1167.6 -1132.58 867.234 814.747
6238.52 -1165.12 -1173.51 761.381 760.882
6241.37 -1187.81 -1177.06 654.031 659.182
6244.22 -1178.24 -1164.37 562.135 569.831
6247.07 -1127.05 -1143.15 493.327 509.01
6249.92 -1124.15 -1118.19 471.567 500.702
6252.77 -1103.37 -1094.59 537.213 531.104
6255.62 -1056.24 -1098.54 584.532 543.005
6258.48 -1136.01 -1102.81 507.269 582.449
6261.33 -1116.17 -1130.3 655.545 592.962
6264.18 -1138.72 -1115.7 616.072 596.378
6267.03 -1092.22 -1106.06 517.516 576.337
6269.88 -1087.24 -1112.74 595.423 568.495
6272.73 -1158.78 -1111.49 592.545 560.958
6275.58 -1088.45 -1119.54 494.905 507.555
6278.43 -1111.4 -1096.96 435.216 498.551
6281.28 -1091.03 -1101.67 565.531 549.908
6284.13 -1102.57 -1121.2 648.976 626.779
6286.98 -1169.99 -1131.47 665.83 627.142
6289.83 -1121.86 -1130.12 566.618 861.09
6292.68 -1098.51 -1099.82 1350.82 1400.96
6295.53 -1079.08 -1059.19 2285.45 2333.46
6298.38 -999.964 -1002.01 3364.1 2835.43
6301.22 -926.983 -999.36 2856.73 2524.98
6304.07 -1071.13 -1014.39 1354.11 1412.19
6306.92 -1045.07 -1059.15 25.7269 270.488
6309.77 -1061.25 -1056.15 -568.37 -519.086
6312.62 -1062.15 -1087.91 -1014.62 -911.895
6315.47 -1140.33 -1098 -1152.7 -1007.81
6318.31 -1091.54 -1093.09 -856.129 -785.925
6321.16 -1047.39 -1076.46 -348.945 -424.917
6324.01 -1090.46 -1104.7 -69.6775 -42.0576
6326.86 -1176.25 -1131.7 292.45 206.037
6329.71 -1128.41 -1130.48 395.337 370.423
6332.55 -1086.79 -1138.16 423.483 406.846
6335.4 -1199.29 -1127.22 401.719 434.438
6338.25 -1095.59 -1146.66 478.113 545.721
6341.09 -1145.12 -1122.71 757.33 604.674
6343.94 -1127.43 -1127.32 578.579 666.45
6346.79 -1109.41 -1109.18 663.44 641.59
6349.63 -1090.69 -1112.44 682.75 731.018
6352.48 -1137.21 -1127.14 846.863 761.635
6355.33 -1153.54 -1131.21 755.291 950.586
6358.17 -1102.9 -1103.71 1249.61 1140.61
6361.02 -1054.69 -1084.18 1416.95 1351.4
6363.87 -1094.94 -1092.3 1387.66 1192.07
6366.71 -1127.28 -1107.05 771.604 873.179
6369.56 -1098.93 -1096.59 460.275 496.165
6372.4 -1063.58 -1091.69 256.618 327.979
6375.25 -1112.58 -1093.94 267.045 271.193
6378.09 -1105.67 -1128.46 289.915 286.15
6380.94 -1167.12 -1127.62 301.49 297.548
6383.78 -1110.06 -1131.52 301.238 369.412
6386.63 -1117.39 -1123.09 505.507 461.797
6389.47 -1141.83 -1118.51 578.645 559.565
6392.32 -1096.32 -1106.65 594.543 593.512
6395.16 -1081.8 -1106.64 607.347 628.242
6398.01 -1141.8 -1106.07 682.836 701.917
6400.85 -1094.62 -1115.91 815.569 755.639
6403.69 -1111.31 -1097.84 768.512 748.326
6406.54 -1087.61 -1084.39 660.897 688.575
6409.38 -1054.26 -1060.9 636.317 655.579
6412.22 -1040.82 -1052.76 669.523 674.167
6415.07 -1063.19 -1058.1 716.66 678.205
6417.91 -1070.3 -1074.92 648.433 676.816
6420.75 -1091.28 -1078.92 665.354 715.217
6423.6 -1075.19 -1075.07 831.863 724.805
6426.44 -1058.74 -1077.33 677.198 728.018
6429.28 -1098.06 -1075.64 674.994 706.089
6432.12 -1070.13 -1061.69 766.075 733.423
6434.97 -1016.87 -1063.82 759.2 787.159
6437.81 -1104.44 -1053.06 836.203 791.882
6440.65 -1037.87 -1081.01 780.243 803.703
6443.49 -1100.72 -1072.64 794.664 822.792
6446.33 -1079.33 -1104.34 893.469 800.737
6449.18 -1132.97 -1067.52 714.077 775.614
6452.02 -990.264 -1063.26 719.297 742.641
6454.86 -1066.56 -1012.74 794.548 797.801
6457.7 -981.406 -1018.07 879.558 816.223
6460.54 -1006.23 -1006.13 774.562 887.085
6463.38 -1030.75 -1015.89 1007.13 922.744
6466.22 -1010.68 -1046.61 986.536 968.644
6469.06 -1098.4 -1048.28 912.262 890.318
6471.9 -1035.76 -1056.64 772.157 812.527
6474.74 -1035.78 -1057.99 753.163 734.079
6477.58 -1102.44 -1065.56 676.917 701.103
6480.42 -1058.45 -1071.16 673.229 665.527
6483.26 -1052.59 -1067.49 646.434 663.142
6486.1 -1091.41 -1075.03 669.764 682.179
6488.94 -1081.07 -1087.86 730.339 725.624
6491.78 -1091.09 -1048.45 776.77 865.98
6494.62 -973.198 -1010.24 1090.83 965.115
6497.46 -966.428 -992.454 1027.74 1069.98
6500.3 -1037.74 -1018.23 1091.37 1010.19
6503.14 -1050.53 -1038.97 911.467 953.438
6505.98 -1028.65 -1039.67 857.48 830.748
6508.82 -1039.83 -1045.25 723.297 697.633
6511.66 -1067.28 -1091.58 512.123 597.326
6514.49 -1167.64 -1098.95 556.559 609.778
6517.33 -1061.93 -1095.36 760.652 729.529
6520.17 -1056.52 -1057.26 871.375 837.493
6523.01 -1053.34 -1069.89 880.452 873.09
6525.84 -1099.8 -1079.87 867.442 938.271
6528.68 -1086.47 -1104.61 1066.92 945.456
6531.52 -1127.54 -1093.88 902.007 958.308
6534.36 -1067.63 -1072.01 905.999 900.64
6537.19 -1020.87 -1048.06 893.913 885.7
6540.03 -1055.67 -1053.54 857.187 873.105
6542.87 -1084.07 -1085.39 868.214 884.035
6545.7 -1116.44 -1066.63 926.705 905.423
6548.54 -999.395 -1019.55 921.349 933.191
6551.38 -942.814 -926.696 951.519 959.374
6554.21 -837.88 -817.067 1005.25 953.581
6557.05 -670.506 -671.965 903.971 907.84
6559.89 -507.509 -514.528 814.295 858.902
6562.72 -365.567 -459.072 858.441 822.328
6565.56 -504.141 -486.885 794.249 808.561
6568.39 -590.946 -612.958 772.992 832.401
6571.23 -743.787 -680.991 929.964 864.32
6574.06 -708.241 -776.445 890.004 926.83
6576.9 -877.308 -824.78 960.523 907.295
6579.73 -888.79 -927.174 871.358 856.334
6582.57 -1015.42 -981.814 737.12 811.195
6585.4 -1041.23 -1025.75 825.108 810.756
6588.24 -1020.59 -1011.87 870.04 845.993
6591.07 -973.781 -1037.71 842.832 876.584
6593.9 -1118.75 -1040.48 916.881 958.555
6596.74 -1028.9 -1070.01 1115.95 1004.86
6599.57 -1062.37 -1032.3 981.735 1009.27
6602.4 -1005.64 -1039.44 930.132 956.283
6605.24 -1050.32 -1035.02 956.981 967.848
6608.07 -1049.09 -1052.29 1016.43 944.603
6610.9 -1057.45 -1047.11 860.395 948.859
6613.74 -1034.78 -1045.49 969.749 914.77
6616.57 -1044.24 -1064.98 914.166 909.091
6619.4 -1115.94 -1059.76 843.358 938.107
6622.24 -1019.12 -1054.82 1056.8 973.775
6625.07 -1029.41 -1040.84 1021.17 1068.63
6627.9 -1073.99 -1045.4 1127.92 1086.58
6630.73 -1032.79 -1037.19 1110.65 1120.99
6633.56 -1004.79 -1006.95 1124.41 1107.32
6636.4 -983.257 -999.27 1086.91 1078.8
6639.23 -1009.76 -996.66 1025.07 1008.57
6642.06 -996.959 -1008.35 913.737 983.201
6644.89 -1018.32 -1016.21 1010.8 964.251
6647.72 -1033.36 -1026.84 968.214 1035.88
6650.55 -1028.85 -1043.61 1128.61 1058.09
6653.38 -1068.63 -1036.46 1077.46 1112.12
6656.21 -1011.91 -1034.31 1130.3 1126.2
6659.04 -1022.38 -1014.04 1170.85 1142.78
6661.87 -1007.84 -1007.21 1127.18 1114.19
6664.7 -991.412 -988.838 1044.54 1138.43
6667.54 -967.265 -968.43 1243.57 1163.88
6670.36 -946.614 -968.724 1203.53 1263.08
6673.19 -992.293 -982.591 1342.14 1275.4
6676.02 -1008.87 -998.876 1280.54 1309.29
6678.85 -995.471 -1005.24 1305.18 1306.91
6681.68 -1011.4 -1003.8 1335.01 1279.5
6684.51 -1004.52 -985.338 1198.3 1217.25
6687.34 -940.1 -981.679 1118.45 1173.7
6690.17 -1000.42 -966.183 1204.36 1200.62
6693 -958.031 -990.247 1279.05 1206.02
6695.83 -1012.29 -982.478 1134.64 1218
6698.66 -977.112 -1012.61 1240.31 1189.03
6701.48 -1048.41 -1012.54 1192.13 1214
6704.31 -1012.11 -1028.14 1209.57 1230.62
6707.14 -1023.9 -1006.64 1290.14 1280.29
6709.97 -983.92 -1007.42 1341.16 1293.27
6712.79 -1014.43 -976.265 1248.51 1284.04
6715.62 -930.447 -975.527 1262.45 1289.86
6718.45 -981.708 -968.975 1358.62 1245.12
6721.28 -994.769 -981.474 1114.29 1238.34
6724.1 -967.945 -996.361 1242.12 1167.5
6726.93 -1026.37 -998.303 1146.09 1198.56
6729.76 -1000.6 -1018.44 1207.47 1215.31
6732.58 -1028.36 -1008.34 1292.37 1263.76
6735.41 -996.065 -1012.69 1291.44 1294.57
6738.23 -1013.63 -973.035 1299.89 1309.7
6741.06 -909.408 -962.484 1337.77 1312.58
6743.89 -964.412 -942.93 1300.1 1311.35
6746.71 -954.97 -960.7 1296.19 1329.67
6749.54 -962.72 -938.694 1392.74 1334.3
6752.36 -898.391 -927.047 1313.98 1360.15
6755.19 -920.029 -905.593 1373.72 1325.86
6758.01 -898.358 -933.663 1289.89 1353.27
6760.84 -982.6 -949.517 1396.21 1341.94
6763.66 -967.591 -974.22 1339.72 1341.35
6766.49 -972.469 -950.512 1288.12 1324.32
6769.31 -911.475 -928.589 1345.12 1383.43
6772.14 -901.823 -917.229 1517.05 1450.28
6774.96 -938.389 -950.505 1488.68 1479.75
6777.78 -1011.3 -964.878 1433.52 1425.09
6780.61 -944.941 -973.752 1353.06 1360.22
6783.43 -965.012 -949.984 1294.07 1355.76
6786.25 -940 -959.184 1420.15 1417.77
6789.08 -972.541 -967.456 1539.09 1454.12
6791.9 -989.826 -963.928 1403.13 1458.97
6794.72 -929.416 -943.871 1434.68 1418.33
6797.55 -912.373 -939.537 1417.18 1440.61
6800.37 -976.821 -970.297 1469.97 1446.26
6803.19 -1021.7 -982.564 1451.62 1452.52
6806.01 -949.175 -992.69 1435.98 1489.2
6808.83 -1007.2 -946.745 1580 1510.57
6811.66 -883.86 -943.652 1515.73 1519.85
6814.48 -939.898 -923.88 1463.82 1479.97
6817.3 -947.883 -958.958 1460.34 1463.12
6820.12 -989.092 -943.078 1465.19 1509.63
6822.94 -892.259 -939.278 1603.35 1574.44
6825.76 -936.483 -920.187 1654.79 1701.91
6828.58 -931.82 -946.991 1847.59 1739.67
6831.41 -972.671 -937.189 1716.62 1641.84
6834.23 -907.075 -925.058 1361.31 1450.62
6837.05 -895.428 -894.413 1273.92 1379.94
6839.87 -880.735 -901.927 1504.57 1324
6842.69 -929.618 -887.171 1193.5 1370.27
6845.51 -851.16 -902.697 1412.74 1341.47
6848.33 -927.311 -895.164 1418.17 1428.49
6851.15 -907.021 -916.063 1454.56 1463.87
6853.97 -913.856 -939.506 1518.88 1572.68
6856.78 -997.641 -996.974 1744.59 1723.23
6859.6 -1079.43 -1045.89 1906.22 1805.04
6862.42 -1060.6 -1056.69 1764.31 1683.87
6865.24 -1030.04 -980.098 1381.08 1383.68
6868.06 -849.66 -919.128 1005.66 1143.15
6870.88 -877.69 -865.898 1042.72 1093.12
6873.7 -870.344 -871.891 1230.99 1197.73
6876.51 -867.639 -894.261 1319.5 1324.45
6879.33 -944.801 -904.12 1422.86 1377.55
6882.15 -899.92 -928.923 1390.31 1436.4
6884.97 -942.048 -919.204 1496.04 1447.61
6887.79 -915.645 -931.073 1456.49 1466.63
6890.6 -935.526 -933.898 1447.36 1428.19
6893.42 -950.523 -916.988 1380.71 1474.28
6896.24 -864.915 -921.546 1594.77 1535.79
6899.05 -949.199 -931.271 1631.88 1600.51
6901.87 -979.698 -986.857 1574.87 1586.64
6904.69 -1031.67 -1002.91 1553.15 1609.04
6907.5 -997.365 -1001.15 1699.1 1617.76
6910.32 -974.404 -981.826 1601.02 1598.44
6913.13 -973.708 -993.417 1495.19 1586.21
6915.95 -1032.14 -999.066 1662.44 1649.16
6918.77 -991.352 -1026.48 1789.86 1764.05
6921.58 -1055.95 -1027.13 1839.86 1727.01
6924.4 -1034.08 -1047.57 1551.3 1699.63
6927.21 -1052.68 -1046.3 1707.74 1706.33
6930.03 -1052.15 -1048.76 1859.96 1790.08
6932.84 -1041.46 -1052.77 1802.53 1873.65
6935.66 -1064.7 -1032.72 1958.46 1878.83
6938.47 -991.992 -1038.51 1875.51 1945.08
6941.28 -1058.85 -1055.93 2001.29 1933.68
6944.1 -1116.95 -1085.42 1924.25 1891.1
6946.91 -1080.47 -1078.15 1747.77 1855.42
6949.73 -1037.03 -1082.32 1894.25 1828.88
6952.54 -1129.45 -1069.09 1844.61 1925.66
6955.35 -1040.8 -1050.78 2038.13 1964.78
6958.17 -982.083 -1039.42 2011.6 1963.52
6960.98 -1095.37 -1052.17 1840.83 1892.79
6963.79 -1079.07 -1061.97 1825.93 1808
6966.6 -1011.47 -1037.62 1757.24 1751.92
6969.42 -1022.32 -1048.81 1672.59 1714.46
6972.23 -1112.62 -1056.82 1713.55 1679.11
6975.04 -1035.52 -1053.15 1651.17 1734.09
6977.85 -1011.3 -1026.01 1837.56 1708.96
6980.66 -1031.21 -1032.39 1638.15 1693.05
6983.48 -1054.67 -1047.58 1603.45 1679.75
6986.29 -1056.87 -1061.27 1797.65 1745.15
6989.1 -1072.27 -1072.19 1834.35 1813.62
6991.91 -1087.44 -1042.7 1808.87 1869.61
6994.72 -968.393 -1037.35 1965.61 1848.01
6997.53 -1056.22 -1015.07 1769.55 1860.64
7000.34 -1020.59 -1015.06 1846.78 1802.81
7003.15 -968.373 -998.817 1792.12 1827.16
7005.96 -1007.48 -983.115 1842.58 1869.2
7008.77 -973.491 -988.754 1972.91 1871.47
7011.58 -985.289 -1003.19 1798.93 1880.21
7014.39 -1050.78 -988.424 1868.79 1840.24
7017.2 -929.202 -1005.25 1852.99 1923.63
7020.01 -1035.77 -977.288 2049.11 1936.84
7022.82 -966.895 -1005.14 1908.43 1935.06
7025.63 -1012.75 -984.347 1847.65 1912.81
7028.44 -973.392 -992.357 1982.34 1901.07
7031.25 -990.923 -982.286 1873.23 1988.68
7034.05 -982.543 -989.572 2110.47 1979.71
7036.86 -995.252 -993.707 1955.43 2041.01
7039.67 -1003.33 -1012.72 2057.14 2002.39
7042.48 -1039.59 -1003.77 1994.61 1988.35
7045.29 -968.405 -995.207 1913.29 1991.91
7048.09 -977.626 -970.157 2067.82 2011.76
7050.9 -964.439 -959.438 2054.18 2018.94
7053.71 -936.248 -972.263 1934.82 1973.85
7056.52 -1016.1 -967.317 1932.55 1942.85
7059.32 -949.601 -992.574 1961.17 2031.08
7062.13 -1012.02 -970.871 2199.52 2118.62
7064.94 -950.991 -980.31 2195.19 2246.48
7067.74 -977.916 -949.682 2344.74 2297.11
7070.55 -920.137 -947.709 2351.4 2377.36
7073.35 -945.074 -928.253 2435.94 2374.37
7076.16 -919.549 -948.518 2335.76 2409.46
7078.97 -980.93 -964.836 2456.68 2393.06
7081.77 -994.028 -984.144 2386.75 2411.48
7084.58 -977.474 -983.135 2391.02 2452.4
7087.38 -977.902 -958.305 2579.44 2495.37
7090.19 -919.538 -957.181 2515.65 2491.47
7092.99 -974.101 -946.125 2379.31 2430.14
7095.8 -944.735 -959.376 2395.45 2451.61
7098.6 -959.292 -947.918 2580.07 2478.32
7101.4 -939.726 -959.6 2459.43 2562.76
7104.21 -979.782 -951.813 2648.77 2559.94
7107.01 -935.93 -968.342 2571.62 2583.63
7109.82 -989.315 -952.125 2530.49 2591.31
7112.62 -931.13 -952.01 2671.82 2596.2
7115.42 -935.584 -934.414 2586.29 2673.74
7118.23 -936.529 -932.333 2763.11 2686.42
7121.03 -924.886 -928.125 2709.88 2652.14
7123.83 -922.959 -934.567 2483.44 2624.49
7126.63 -955.857 -933.848 2680.15 2537.78
7129.44 -922.728 -938.026 2449.76 2596.04
7132.24 -935.494 -901.713 2658.21 2598.62
7135.04 -846.916 -912.587 2687.88 2724.6
7137.84 -955.351 -898.618 2827.72 2691.56
7140.64 -893.588 -913.766 2559.07 2702.66
7143.45 -892.358 -881.712 2721.19 2630.65
7146.25 -859.19 -866.808 2611.68 2678.79
7149.05 -848.876 -874.637 2703.5 2685.15
7151.85 -915.847 -887.619 2740.28 2712.46
7154.65 -898.134 -911.442 2693.61 2719.53
7157.45 -920.346 -902.233 2724.71 2726.91
7160.25 -888.219 -888.685 2762.42 2765.69
7163.05 -857.491 -865.602 2809.95 2747.07
7165.85 -851.097 -868.787 2668.84 2714.86
7168.65 -897.774 -876.687 2665.77 2638.68
7171.45 -881.191 -893.477 2581.42 2599.83
7174.25 -901.465 -878.044 2552.29 2556.09
7177.05 -851.476 -875.955 2534.55 2589.93
7179.85 -874.924 -847.103 2682.95 2594.05
7182.65 -814.908 -816.817 2564.66 2545.27
7185.45 -760.619 -774.795 2388.21 2566.91
7188.24 -748.858 -770.792 2747.85 2560.78
7191.04 -802.899 -780.935 2546.29 2688.95
7193.84 -791.047 -796.056 2772.71 2692.6
7196.64 -794.22 -784.509 2758.8 2745.49
7199.44 -768.26 -787.317 2704.98 2761.63
7202.23 -799.471 -767.42 2821.11 2765.52
7205.03 -734.529 -774.48 2770.47 2828.3
7207.83 -789.438 -758.114 2893.31 2827.62
7210.63 -750.373 -784.815 2819.09 2894.28
7213.42 -814.633 -809.248 2970.45 2835.34
7216.22 -862.737 -829.945 2716.47 2837.16
7219.02 -812.464 -835.939 2824.54 2796.52
7221.81 -832.617 -820.193 2848.55 2854.9
7224.61 -815.499 -835.066 2891.62 2779.79
7227.41 -857.083 -827.442 2599.21 2679.82
7230.2 -809.744 -813.14 2548.65 2485.43
7233 -772.592 -809.193 2308.43 2438.4
7235.79 -845.243 -779.746 2458.13 2486.33
7238.59 -721.402 -812.015 2692.44 2764.93
7241.38 -869.401 -785.655 3144.21 3055.9
7244.18 -766.162 -827.706 3331.05 3274.73
7246.97 -847.554 -807.707 3348.91 3354.18
7249.77 -809.405 -827.263 3382.57 3320.37
7252.56 -824.829 -831.31 3229.63 3199.16
7255.35 -859.696 -825.511 2985.27 3176.39
7258.15 -792.009 -825.392 3314.26 3122.21
7260.94 -824.472 -799.756 3067.09 3154.18
7263.74 -782.787 -799.184 3081.19 2877.19
7266.53 -790.291 -783.637 2483.3 2708.55
7269.32 -777.832 -761.173 2561.16 2631.86
7272.11 -715.394 -747.033 2851.1 2879.29
7274.91 -747.874 -735.635 3225.61 3197.51
7277.7 -743.637 -762.442 3515.83 3444.61
7280.49 -795.815 -773.678 3592.4 3570.77
7283.28 -781.583 -788.956 3604.1 3595.48
7286.08 -789.471 -787.266 3589.95 3534.27
7288.87 -790.743 -770.482 3408.75 3449.6
7291.66 -731.231 -767.273 3350.11 3415.22
7294.45 -779.845 -739.963 3486.78 3424.82
7297.24 -708.813 -741.182 3437.55 3384.09
7300.03 -734.888 -737.639 3227.94 3333.02
7302.82 -769.215 -766.084 3333.56 3245.36
7305.62 -794.147 -777.076 3174.6 3127.59
7308.41 -767.867 -764.027 2874.61 3127.69
7311.2 -730.068 -735.559 3333.85 3284.75
7313.99 -708.743 -724.561 3645.81 3569.23
7316.78 -734.873 -747.877 3728.02 3728.38
7319.57 -800.016 -772.653 3811.31 3808.44
7322.35 -783.072 -778.855 3885.99 3818.96
7325.14 -753.476 -762.82 3759.57 3671.92
7327.93 -751.913 -767.311 3370.18 3438.23
7330.72 -796.542 -763.179 3184.94 3273.27
7333.51 -741.082 -768.997 3264.69 3311.8
7336.3 -769.368 -762.864 3485.78 3578.69
7339.09 -778.144 -785.757 3985.59 3922.84
7341.88 -809.76 -808.654 4297.14 4250.46
7344.66 -838.059 -825.915 4468.64 4194.72
7347.45 -829.924 -819.108 3818.38 4008.5
7350.24 -789.339 -801.119 3738.48 3791.8
7353.03 -784.094 -781.627 3818.55 3742.37
7355.81 -771.448 -789.117 3670.09 3812.04
7358.6 -811.81 -783.416 3947.48 3828.81
7361.39 -766.991 -780.966 3868.85 3847.75
7364.17 -764.096 -762.746 3726.92 3953.11
7366.96 -757.152 -750.772 4263.55 4114.89
7369.75 -731.067 -740.218 4354.2 4378.91
7372.53 -732.436 -737.325 4518.99 4405.11
7375.32 -748.471 -749.28 4342.14 4354.7
7378.1 -766.933 -755.499 4202.96 4185.09
7380.89 -751.093 -758.485 4010.18 4137.12
7383.67 -757.43 -758.409 4198.21 4057.51
7386.46 -766.704 -737.042 3964.14 4022.7
7389.24 -686.991 -713.471 3905.73 3937.94
7392.03 -686.718 -696.465 3943.94 3892.74
7394.81 -715.685 -714.091 3828.54 3980.85
7397.6 -739.869 -748.109 4170.07 4151.9
7400.38 -788.773 -747.095 4457.09 4345.73
7403.17 -712.644 -770.075 4410.03 4425.55
7405.95 -808.808 -761.797 4409.52 4342.16
7408.73 -763.94 -765.672 4206.94 4293.61
7411.52 -724.269 -731.426 4264.38 4230.54
7414.3 -706.069 -731.386 4220.31 4236.82
7417.08 -763.819 -729.54 4225.77 4291.03
7419.86 -718.731 -726.583 4427.01 4276.04
7422.65 -697.2 -722.062 4175.33 4343.88
7425.43 -750.255 -719.794 4429.29 4330.72
7428.21 -711.927 -714.312 4387.53 4475.33
7430.99 -680.755 -712.122 4609.18 4450.01
7433.78 -743.684 -713.57 4353.31 4472.41
7436.56 -716.272 -742.317 4454.74 4523.24
7439.34 -766.995 -722.509 4761.68 4651.16
7442.12 -684.261 -723.916 4737.05 4659.68
7444.9 -720.491 -690.045 4480.3 4582.5
7447.68 -665.384 -704.402 4530.14 4442.48
7450.46 -727.329 -706.632 4316.98 4407.39
7453.24 -727.183 -728.454 4375.06 4386.94
7456.02 -730.849 -733.181 4468.78 4415.72
7458.8 -741.51 -736.165 4403.31 4308.14
7461.58 -736.135 -728.221 4052.33 4303.63
7464.36 -707.017 -729.841 4455.25 4365.29
7467.14 -746.37 -719.89 4588.28 4553.26
7469.92 -706.282 -721.276 4616.25 4613.1
7472.7 -711.174 -703.11 4634.76 4696.95
7475.48 -691.873 -693.057 4839.83 4766.1
7478.25 -676.125 -688.625 4823.72 4963.95
7481.03 -697.877 -702.31 5228.31 5040.07
7483.81 -732.928 -719.961 5068.19 5125.52
7486.59 -729.079 -724.465 5080.08 5048.72
7489.37 -711.387 -731.166 4997.9 5003.61
7492.14 -753.031 -720.579 4932.87 4982.78
7494.92 -697.32 -699.905 5017.56 4910.25
7497.7 -649.365 -684.431 4780.31 4881.21
7500.48 -706.608 -673.097 4845.75 4829.93
7503.25 -663.317 -692.656 4863.74 4761.1
7506.03 -708.043 -688.351 4573.81 4700.45
7508.8 -693.692 -697.307 4663.8 4609.86
7511.58 -690.186 -683.317 4591.95 4621.79
7514.36 -666.072 -673.478 4609.6 4617.01
7517.13 -664.175 -678.836 4649.47 4871.06
7519.91 -706.26 -682.763 5354.11 5107.94
7522.68 -677.854 -693.556 5320.25 5382.32
7525.46 -696.553 -665.728 5472.61 5400.35
7528.23 -622.778 -660.542 5408.17 5472.55
7531.01 -662.295 -657.196 5536.86 5553.72
7533.78 -686.516 -684.321 5716.14 5483.81
7536.56 -704.154 -694.399 5198.43 5383.94
7539.33 -692.528 -689.676 5237.26 5186.6
7542.1 -672.345 -679.817 5124.11 5176.11
7544.88 -674.576 -681.215 5166.96 5133.56
7547.65 -696.723 -674.991 5109.61 5105.03
7550.42 -653.674 -680.796 5038.52 5093.15
7553.2 -691.99 -668.729 5131.32 5096.24
7555.97 -660.522 -674.478 5118.88 5131.65
7558.74 -670.921 -662.861 5144.74 5158.29
7561.51 -657.141 -662.72 5211.24 5103.41
7564.29 -660.1 -673.285 4954.25 5187.46
7567.06 -702.614 -678.45 5396.88 5326.86
7569.83 -672.637 -670.755 5629.44 5492.36
7572.6 -637.014 -650.151 5450.76 5518.73
7575.37 -640.803 -647.012 5476.01 5502.14
7578.14 -663.219 -645.234 5579.66 5474.15
7580.92 -631.679 -647.059 5366.79 5493.66
7583.69 -646.279 -617.546 5534.54 5342.22
7586.46 -574.68 -609.047 5125.33 5217.86
7589.23 -606.183 -578.041 4993.71 4837.07
7592 -553.258 -550.616 4392.15 4256.09
7594.77 -492.405 -468.489 3382.41 3377.09
7597.54 -359.803 -357.756 2356.69 2503.08
7600.31 -221.059 -245.671 1770.14 1839.81
7603.07 -156.153 -171.642 1392.61 1490.67
7605.84 -137.715 -147.021 1309.26 1370.35
7608.61 -147.195 -151.053 1409.19 1526.53
7611.38 -168.249 -188.95 1861.13 2010.59
7614.15 -251.405 -254.824 2761.46 2695.26
7616.92 -344.818 -330.32 3463.19 3300.91
7619.69 -394.736 -380.71 3678.07 3435.72
7622.45 -402.577 -366.333 3165.91 3282.64
7625.22 -301.686 -344.367 3003.93 2967.42
7627.99 -328.839 -315.277 2732.42 2866.7
7630.76 -315.308 -312.544 2863.74 2753.1
7633.52 -293.484 -307.427 2663.14 2853.56
7636.29 -313.488 -309.74 3033.79 2906.04
7639.06 -322.247 -327.917 3021.2 3098.39
7641.82 -348.015 -339.406 3240.17 3237.01
7644.59 -347.957 -366.945 3449.68 3400.75
7647.35 -404.864 -385.334 3512.4 3589.82
7650.12 -403.18 -411.183 3807.39 3796.38
7652.89 -425.505 -424.853 4069.36 4086.08
7655.65 -445.873 -426.704 4381.49 4333.24
7658.42 -408.733 -442.772 4548.87 4510.53
7661.18 -473.71 -453.371 4601.23 4674.92
7663.95 -477.671 -468.974 4874.67 4807.6
7666.71 -455.54 -470.048 4946.91 4971.6
7669.47 -476.933 -470.573 5093.23 5140.17
7672.24 -479.245 -493.68 5380.37 5228.3
7675 -524.861 -517.699 5211.3 5310.86
7677.76 -548.99 -539.497 5340.91 5220.26
7680.53 -544.639 -553.953 5108.58 5418.59
7683.29 -568.231 -550.47 5806.26 5419.09
7686.05 -538.54 -563.164 5342.44 5598.97
7688.82 -582.72 -547.269 5648.2 5510.82
7691.58 -520.545 -563.581 5541.82 5522.03
7694.34 -587.477 -540.748 5376.07 5359
7697.1 -514.221 -557.035 5159.1 5245.08
7699.87 -569.408 -556.559 5200.06 5131.93
7702.63 -586.049 -580.537 5036.63 5064.1
7705.39 -586.154 -593.912 4955.6 5092.49
7708.15 -609.534 -593.682 5285.23 5367.53
7710.91 -585.359 -596.072 5861.75 5955.11
7713.67 -593.324 -578.762 6718.34 6477.13
7716.43 -557.603 -570.293 6851.3 6827.59
7719.19 -559.953 -559.736 6913.14 6660.93
7721.95 -561.651 -574.826 6218.34 6548.08
7724.71 -602.876 -576.22 6512.76 6269.14
7727.47 -564.133 -568.936 6076.33 6117.79
7730.23 -539.798 -572.043 5764.27 5881.13
7732.99 -612.197 -604.122 5802.79 5662.51
7735.75 -660.37 -649.103 5420.48 5499.77
7738.51 -674.74 -648.395 5276.03 5195.86
7741.27 -610.075 -639.805 4891.07 5209.96
7744.03 -634.601 -613.806 5462.79 5374.51
7746.78 -596.742 -640.147 5769.69 5820.55
7749.54 -689.097 -640.816 6229.17 6268.72
7752.3 -636.61 -662.827 6807.29 6578.75
7755.06 -662.772 -640.411 6699.78 6603.34
7757.81 -621.851 -631.879 6302.94 6463.91
7760.57 -611.014 -635.879 6389.02 6335.71
7763.33 -674.773 -627.799 6315.18 6270.55
7766.08 -597.609 -623.445 6107.44 6137.65
7768.84 -597.952 -598.049 5990.33 6026.5
7771.6 -598.585 -605.382 5981.73 5968.28
7774.35 -619.61 -605.649 5932.79 5834.09
7777.11 -598.752 -605.415 5587.75 5753.65
7779.86 -597.882 -608.888 5740.42 5669.46
7782.62 -630.03 -606.972 5680.2 5653.15
7785.37 -593.004 -606.096 5538.85 5593.14
7788.13 -595.252 -613.121 5560.38 5807.26
7790.88 -651.108 -631.306 6322.55 6150.22
7793.64 -647.557 -632.533 6567.72 6560.01
7796.39 -598.935 -620.736 6789.75 6495.03
7799.15 -615.716 -611.8 6127.64 6253.09
7801.9 -620.749 -611.733 5841.89 5976.92
7804.65 -598.734 -614.697 5961.23 5931.17
7807.41 -624.607 -622.296 5990.38 5872.25
7810.16 -643.547 -642.502 5665.14 5875.68
7812.91 -659.353 -634.315 5971.53 5807.71
7815.67 -600.044 -607.43 5786.47 6197.21
7818.42 -562.893 -589.033 6833.63 6619.94
7821.17 -604.16 -607.377 7239.72 7054.8
7823.92 -655.076 -635.847 7091.04 7028.78
7826.67 -648.306 -634.625 6755.57 6711.93
7829.43 -600.494 -615.721 6289.16 6339.48
7832.18 -598.365 -595.575 5973.72 5975.42
7834.93 -587.866 -603.014 5663.38 5774.89
7837.68 -622.812 -584.803 5687.57 5602.71
7840.43 -543.732 -589.942 5457.18 5540.24
7843.18 -603.282 -587.634 5475.96 5480.69
7845.93 -615.887 -584.676 5508.92 5579.47
7848.68 -534.858 -566.206 5753.55 5833.25
7851.43 -547.873 -554.92 6237.3 6260.9
7854.18 -582.028 -569.612 6791.86 6566.13
7856.93 -578.934 -564.753 6669.23 6718.19
7859.68 -533.296 -547.022 6693.49 6505.24
7862.43 -528.835 -552.677 6153 6396.46
7865.18 -595.901 -577.428 6342.88 6267.86
7867.92 -607.547 -598.991 6307.71 6339.24
7870.67 -593.526 -590.471 6367.13 6272.51
7873.42 -570.341 -568.882 6142.69 6262.71
7876.17 -542.779 -573.731 6278.3 6256.07
7878.92 -608.074 -568.316 6347.23 6379.45
7881.66 -554.096 -581.952 6512.82 6396.69
7884.41 -583.686 -573.509 6330.02 6556.43
7887.16 -582.743 -552.616 6826.45 6496.51
7889.9 -491.417 -527.418 6333.06 6398.63
7892.65 -508.094 -518.472 6036.39 6175.05
7895.4 -555.904 -538.132 6155.7 6000.13
7898.14 -550.397 -549.861 5808.29 5903.36
7900.89 -543.282 -561.186 5746.1 5552.84
7903.63 -589.878 -565.217 5104.13 5401.48
7906.38 -562.491 -551.177 5354.22 5434.43
7909.12 -501.161 -546.169 5844.96 5925.69
7911.87 -574.855 -538.93 6577.9 6496.69
7914.61 -540.773 -539.758 7067.21 6865.14
7917.36 -503.645 -541.715 6950.31 6938.23
7920.1 -580.726 -535.754 6797.16 6814.62
7922.84 -522.892 -532.773 6696.4 6627.43
7925.59 -494.7 -523.783 6388.74 6468.4
7928.33 -553.757 -540.31 6320.07 6365.91
7931.08 -572.472 -549.854 6388.93 6290.77
7933.82 -523.332 -546.457 6163.3 6242.52
7936.56 -543.568 -531.322 6175.35 6178.19
7939.3 -527.065 -520.838 6195.91 6123.39
7942.05 -491.882 -502.213 5998.92 5992.09
7944.79 -487.692 -492.675 5781.43 5894.15
7947.53 -498.451 -501.857 5902.09 5889.27
7950.27 -519.426 -520.289 5984.29 5985.3
7953.01 -542.988 -531.843 6069.5 5918.47
7955.75 -533.116 -526.364 5701.63 5800.25
7958.49 -502.989 -505.608 5629.63 5867.19
7961.23 -480.72 -479.446 6270.32 6211.36
7963.98 -454.63 -477.58 6734.14 6574.89
7966.72 -497.391 -495.899 6720.22 6711.5
7969.46 -535.676 -509.172 6680.14 6582.34
7972.2 -494.448 -512.037 6346.67 6388.11
7974.93 -505.986 -503.811 6137.52 6150.46
7977.67 -510.999 -497.556 5967.2 6077.4
7980.41 -475.682 -501.37 6127.47 6038.06
7983.15 -517.428 -484.134 6019.51 5938.52
7985.89 -459.293 -497.209 5668.56 6064.84
7988.63 -514.905 -473.896 6506.46 6242.46
7991.37 -447.49 -457.035 6552.38 6736.14
7994.1 -408.71 -458.221 7149.6 6874.84
7996.84 -518.461 -461.394 6922.55 6838.95
7999.58 -457.009 -484.366 6444.69 6466.09
8002.32 -477.629 -461.972 6031.02 6086.22
8005.05 -451.277 -478.69 5782.95 5958.96
8007.79 -507.164 -486.635 6062.91 6004.11
8010.53 -501.464 -495.042 6166.47 6026.46
8013.26 -476.497 -491.519 5850 6064.26
8016 -496.594 -494.61 6176.3 6001.92
8018.74 -510.739 -493.614 5979.45 6097.68
8021.47 -473.511 -465.544 6137.3 6316.73
8024.21 -412.383 -457.053 6833.44 6662.4
8026.94 -485.264 -435.379 7016.46 6793.23
8029.68 -408.49 -472.504 6529.78 6706.45
8032.41 -523.759 -482.835 6573.12 6558.65
8035.14 -516.255 -498.113 6573.06 6463.14
8037.88 -454.327 -483.325 6243.23 6311.78
8040.61 -479.394 -476.933 6119.04 6099.56
8043.35 -497.077 -472.892 5936.4 6007.68
8046.08 -442.205 -458.626 5967.61 5968.83
8048.81 -436.597 -444.345 6002.47 6047.54
8051.55 -454.233 -462.886 6172.54 6030.1
8054.28 -497.829 -477.667 5915.27 6106.44
8057.01 -480.94 -473.583 6231.5 6159.68
8059.74 -441.981 -468.557 6332.26 6437.84
8062.48 -482.751 -467.185 6749.77 6562.81
8065.21 -476.824 -477.143 6606.4 6607.57
8067.94 -471.853 -459.435 6466.54 6363.08
8070.67 -429.629 -446.063 6016.29 6285.6
8073.4 -436.707 -440.78 6373.97 6253.48
8076.13 -456.004 -459.044 6370.17 6262.15
8078.86 -484.419 -464.478 6042.32 6198.95
8081.59 -453.01 -468.317 6184.35 6128.24
8084.32 -467.522 -444.45 6158.04 6061.44
8087.05 -412.818 -438.755 5841.91 6010.15
8089.78 -435.924 -429.143 6030.49 5941.35
8092.51 -438.688 -444.529 5951.66 6061.35
8095.24 -458.977 -449.752 6201.92 6089.25
8097.97 -451.591 -451.095 6114.17 6166.83
8100.7 -442.719 -440.631 6184.4 6187.36
8103.43 -427.582 -441.606 6263.5 6154.86
8106.16 -454.516 -435.157 6016.67 6123.46
8108.88 -423.373 -438.804 6090.21 6026
8111.61 -438.525 -442.592 5971.12 6053.58
8114.34 -465.879 -443.278 6099.43 6021.59
8117.07 -425.43 -434.065 5994.21 6042.27
8119.79 -410.887 -430.39 6033.18 6031.68
8122.52 -454.854 -433.826 6067.65 6020.57
8125.25 -435.737 -451.611 5960.88 6057.89
8127.97 -464.243 -435.274 6145.14 6009.04
8130.7 -405.841 -435.263 5921.11 6029.87
8133.42 -435.705 -418.936 6023.35 5990.23
8136.15 -415.261 -425.953 6026.24 5937.61
8138.87 -426.892 -419.118 5763.23 5915.18
8141.6 -415.2 -418.231 5956.08 5838.44
8144.32 -412.6 -410.562 5796.02 5847.72
8147.05 -403.885 -411.106 5791.05 5846.5
8149.77 -416.832 -633.904 5952.45 8368.25
8152.5 -1080.99 -630.657 13361.3 8353.19
8155.22 -394.145 -627.929 5745.88 8288.16
8157.94 -408.648 -405.864 5757.36 5683.81
8160.67 -414.798 -407.012 5548.18 5611.94
8163.39 -397.59 -389.538 5530.28 5508.58
8166.11 -356.225 -384.453 5447.26 5447.44
8168.84 -399.545 -384.411 5364.78 5476.46
8171.56 -397.463 -381.824 5617.34 5497.68
8174.28 -348.463 -383.353 5510.92 5511.07
8177 -404.134 -377.7 5404.95 5487.88
8179.72 -380.502 -381.196 5547.78 5417.92
8182.45 -358.953 -372.219 5301.03 5415.98
8185.17 -377.201 -360.183 5399.13 5376.74
8187.89 -344.397 -372.377 5430.05 5488.07
8190.61 -395.534 -373.518 5635.03 5536.03
8193.33 -380.625 -369.67 5543.01 5454.82
8196.05 -332.851 -363.734 5186.41 5355.95
8198.77 -377.726 -364.227 5338.43 5376.26
8201.49 -382.105 -391.108 5603.93 5650.81
8204.21 -413.495 -393.545 6010.07 5760.87
8206.93 -385.037 -404.729 5668.62 5905
8209.65 -415.655 -386.686 6036.31 5765
8212.36 -359.367 -387.678 5590.08 5740.03
8215.08 -388.013 -383.893 5593.72 5643.97
8217.8 -404.299 -394.884 5748.11 5649.37
8220.52 -392.339 -385.578 5606.29 5510.44
8223.24 -360.098 -375.264 5176.94 5325.56
8225.95 -373.355 -361.453 5193.46 5142.33
8228.67 -350.907 -352.705 5056.6 5060.4
8231.39 -333.853 -340.297 4931.13 5081.03
8234.11 -336.129 -354.056 5255.36 5220.18
8236.82 -392.185 -376.705 5474.05 5392.2
8239.54 -401.8 -380.216 5447.19 5517.67
8242.25 -346.664 -374.469 5631.77 5576.09
8244.97 -374.944 -368.205 5649.3 5756.94
8247.69 -383.006 -381.451 5989.76 5822.38
8250.4 -386.403 -381.416 5828.09 5855.64
8253.12 -374.84 -387.513 5749.07 5723.34
8255.83 -401.295 -381.377 5592.87 5689.63
8258.54 -367.995 -395.907 5726.97 5625.9
8261.26 -418.432 -370.347 5557.86 5587.67
8263.97 -324.612 -371.228 5478.19 5575.82
8266.69 -370.638 -368.869 5691.42 5573.3
8269.4 -411.357 -387.683 5550.29 5537.58
8272.11 -381.053 -393.752 5371.02 5360.31
8274.83 -388.848 -362.935 5159.61 5166.55
8277.54 -318.905 -345.33 4969.02 5098.83
8280.25 -328.238 -331.403 5167.85 5163.19
8282.96 -347.066 -331.906 5352.69 5236.31
8285.68 -320.416 -331.166 5188.38 5263.88
8288.39 -326.016 -324.803 5250.58 5195.02
8291.1 -327.978 -337.659 5146.11 5223.77
8293.81 -358.983 -350.507 5274.62 5317.32
8296.52 -364.561 -343.493 5531.22 5504.58
8299.23 -306.935 -331.618 5707.9 5730.36
8301.94 -323.357 -334.714 5951.95 5748.39
8304.65 -373.849 -333.521 5585.32 5727.14
8307.36 -303.358 -337.136 5644.16 5580.8
8310.07 -334.2 -335.532 5512.92 5603.49
8312.78 -369.038 -348.282 5653.39 5579.13
8315.49 -341.608 -368.376 5571.07 5621.44
8318.2 -394.481 -370.926 5639.86 5624.7
8320.91 -376.69 -379.744 5663.18 5595.7
8323.62 -368.06 -359.211 5484.05 5524.02
8326.32 -332.882 -336.319 5424.84 5420.98
8329.03 -308.015 -334.822 5354.06 5446.76
8331.74 -363.568 -331.965 5561.37 5265.66
8334.45 -324.311 -354.001 4881.55 4886.39
8337.15 -374.122 -319.781 4216.25 4501.47
8339.86 -260.911 -317.086 4406.61 4618.1
8342.57 -316.226 -271.448 5231.43 5068.51
8345.27 -237.208 -328.436 5567.49 5776.81
8347.98 -431.875 -344.863 6531.52 6104.8
8350.69 -365.506 -360.395 6215.4 6174.54
8353.39 -283.804 -332.154 5776.71 5911.8
8356.1 -347.153 -334.533 5743.29 5750.4
8358.8 -372.642 -349.934 5731.19 5653.64
8361.51 -330.007 -352.799 5486.45 5526.21
8364.21 -355.747 -344.406 5361 5471.23
8366.92 -347.463 -360.927 5566.26 5538.16
8369.62 -379.57 -360.998 5687.23 5583.03
8372.32 -355.961 -367.644 5495.61 5497.82
8375.03 -367.4 -347.401 5310.63 5330.2
8377.73 -318.842 -350.419 5184.36 5296.19
8380.43 -365.013 -330.788 5393.59 5390.52
8383.14 -308.508 -344.88 5593.6 5501.39
8385.84 -361.12 -344.107 5516.98 5527.14
8388.54 -362.694 -363.568 5470.84 5337.53
8391.24 -366.89 -355.909 5024.77 5181.63
8393.94 -338.143 -356.989 5049.27 5087.3
8396.65 -365.935 -355.645 5187.87 5326.28
8399.35 -362.857 -363.356 5741.69 5781.06
8402.05 -361.275 -364.009 6413.63 6092.64
8404.75 -367.895 -355.195 6122.6 6023.08
8407.45 -336.415 -351.674 5533 5657.17
8410.15 -350.714 -348.852 5315.92 5479.42
8412.85 -359.427 -353.253 5589.35 5458.5
8415.55 -349.617 -348.246 5470.22 5469.21
8418.25 -335.695 -339.853 5348.07 5365.9
8420.95 -334.248 -338.333 5279.41 5235.03
8423.65 -345.056 -335.037 5077.6 5047.39
8426.35 -325.807 -350.742 4785.17 5020.38
8429.04 -381.362 -347.965 5198.38 5140.01
8431.74 -336.727 -349.96 5436.48 5503.45
8434.44 -331.792 -336.256 5875.5 5677.16
8437.14 -340.249 -334.079 5719.52 5709.64
8439.83 -330.197 -332.185 5533.89 5568.2
8442.53 -326.11 -332.715 5451.19 5462.37
8445.23 -341.837 -341.491 5402.02 5338.65
8447.92 -356.525 -350.887 5162.74 5372.4
8450.62 -354.3 -344.493 5552.44 5348.91
8453.32 -322.653 -339.923 5331.55 5520.77
8456.01 -342.816 -334.431 5678.33 5368.47
8458.71 -337.823 -329.241 5095.54 5237.13
8461.4 -307.084 -314.271 4937.52 5046.76
8464.1 -297.904 -308.649 5107.21 5186.24
8466.79 -320.96 -307.846 5514 5382.21
8469.49 -304.673 -321.088 5525.42 5467.55
8472.18 -337.631 -325.139 5363.23 5429.03
8474.88 -333.114 -328.794 5398.45 5319.76
8477.57 -315.638 -332.925 5197.59 5275.63
8480.26 -350.022 -338.406 5230.85 5223.48
8482.96 -349.559 -342.549 5242 5283.23
8485.65 -328.067 -344.144 5376.86 5333.68
8488.34 -354.805 -346.299 5382.17 5312.46
8491.03 -356.023 -341.365 5178.34 5225.22
8493.73 -313.265 -333.87 5115.16 5039.17
8496.42 -332.323 -301.812 4824.03 4848.21
8499.11 -259.847 -297.448 4605.45 4858.39
8501.8 -300.174 -279.336 5145.7 4991.63
8504.49 -277.988 -302.49 5223.75 5177.52
8507.18 -329.307 -326.295 5163.11 5253.77
8509.87 -371.589 -351.862 5374.44 5222.58
8512.56 -354.69 -352.825 5130.2 5224.39
8515.25 -332.195 -335.397 5168.54 5153.88
8517.94 -319.307 -326.959 5162.89 5146.17
8520.63 -329.375 -326.264 5107.07 5141.04
8523.32 -330.11 -325.932 5153.16 5094.83
8526.01 -318.312 -315.919 5024.27 5043.46
8528.7 -299.334 -309.605 4952.94 5110.53
8531.39 -311.167 -318.657 5354.37 5203.72
8534.07 -345.469 -312.166 5303.85 5241.89
8536.76 -279.862 -313.356 5067.46 5066.32
8539.45 -314.738 -294.595 4827.65 4740.19
8542.14 -289.185 -292.133 4325.45 4435.01
8544.82 -272.474 -287.939 4151.92 4296.25
8547.51 -302.158 -309.111 4411.37 4531.48
8550.2 -352.699 -341.81 5031.16 4844.74
8552.88 -370.573 -366.936 5091.69 5107.42
8555.57 -377.535 -374.617 5199.4 5132.26
8558.25 -375.742 -375.446 5105.69 5126
8560.94 -373.061 -375.434 5072.91 5162.28
8563.62 -377.499 -378.745 5308.25 5237.57
8566.31 -385.676 -396.066 5331.55 5378.1
8568.99 -425.024 -392.17 5494.51 5376.28
8571.68 -365.809 -386.982 5302.77 5393.41
8574.36 -370.112 -375.353 5382.93 5338.92
8577.05 -390.138 -380.072 5331.05 5272.11
8579.73 -379.966 -391.559 5102.36 5269.76
8582.41 -404.574 -386.211 5375.87 5214.47
8585.09 -374.093 -385.127 5165.19 5266.94
8587.78 -376.714 -387.782 5259.76 5254.06
8590.46 -412.538 -384.319 5337.23 5243.34
8593.14 -363.706 -382.037 5133.03 5259
8595.82 -369.867 -363.811 5306.74 5131.45
8598.51 -357.859 -360.784 4954.59 5150.62
8601.19 -354.627 -363.192 5190.52 5068.37
8603.87 -377.089 -383.603 5059.99 5187.02
8606.55 -419.094 -389.873 5310.55 5237.92
8609.23 -373.437 -389.211 5343.23 5293.68
8611.91 -375.104 -378.32 5227.26 5244.71
8614.59 -386.419 -383.571 5163.64 5210.5
8617.27 -389.191 -386.362 5240.6 5273.28
8619.95 -383.477 -365.421 5415.59 5313.88
8622.63 -323.596 -372.748 5285.46 5369.32
8625.31 -411.17 -386.978 5406.92 5351.8
8627.98 -426.168 -410.458 5363.02 5418.97
8630.66 -394.034 -402.81 5486.98 5316.6
8633.34 -388.227 -385.902 5099.81 5268.65
8636.02 -375.445 -392.008 5219.17 5147.92
8638.7 -412.353 -387.495 5124.77 5179.1
8641.37 -374.687 -403.166 5193.35 5271.99
8644.05 -422.458 -388.677 5497.85 5290.91
8646.73 -368.886 -398.807 5181.54 5300.36
8649.4 -405.075 -378.921 5221.69 5212.71
8652.08 -362.802 -380.195 5234.89 5304.53
8654.75 -372.709 -368.018 5457.01 5321.03
8657.43 -368.542 -369.23 5271.2 5207.54
8660.1 -366.44 -349.854 4894.4 4839.05
8662.78 -314.58 -318.345 4351.56 4446.2
8665.45 -274.014 -299.902 4092.65 4222.57
8668.13 -311.111 -305.831 4223.51 4296.35
8670.8 -332.368 -342.191 4572.89 4544.31
8673.48 -383.093 -370.187 4836.54 4826.84
8676.15 -395.099 -388.695 5071.08 4938.76
8678.82 -387.893 -387.477 4908.67 4959.91
8681.5 -379.44 -377.113 4899.97 4933.83
8684.17 -364.006 -372.525 4992.85 4987.1
8686.84 -374.128 -373.468 5068.49 4987.48
8689.51 -382.271 -371.389 4901.1 4921.81
8692.19 -357.768 -378.025 4795.85 4940.84
8694.86 -394.037 -376.567 5125.56 4928.99
8697.53 -377.896 -382.02 4865.56 5048.82
8700.2 -374.126 -371.328 5155.33 5037.29
8702.87 -361.962 -366.559 5090.98 5135.87
8705.54 -363.59 -364.666 5161.31 5153.91
8708.21 -368.445 -378.445 5209.45 5157.02
8710.88 -403.3 -390.299 5100.3 5213.28
8713.55 -399.152 -391.49 5330.09 5080.11
8716.22 -372.018 -384.823 4809.94 4954.73
8718.89 -383.3 -381.332 4724.17 4860.31
8721.56 -388.677 -392.99 5046.83 4981.56
8724.23 -406.993 -393.653 5173.67 5163.6
8726.89 -385.291 -393.173 5270.3 5180.71
8729.56 -387.234 -381.015 5098.15 5054.8
8732.23 -370.52 -371.812 4795.95 4977.73
8734.9 -357.682 -365.769 5039.09 4946.16
8737.56 -369.105 -367.419 5003.43 4942.63
8740.23 -375.469 -371.718 4785.38 4895.45
8742.9 -370.581 -374.453 4897.55 4896.9
8745.56 -377.309 -362.562 5007.77 4915.39
8748.23 -339.796 -360.56 4840.86 4945.44
8750.9 -364.574 -354.229 4987.68 4917.94
8753.56 -358.317 -352.306 4925.28 4943.22
8756.23 -334.025 -344.469 4916.7 5164.37
8758.89 -341.064 -356.507 5651.14 5514.65
8761.56 -394.431 -351.295 5976.1 5990.38
8764.22 -318.391 -378.172 6343.89 6255.5
8766.88 -421.693 -361.134 6446.51 6166.2
8769.55 -343.319 -359.137 5708.21 5793.18
8772.21 -312.4 -345.597 5224.82 5254.05
8774.87 -381.072 -358.387 4829.12 5144.49
8777.54 -381.69 -380.787 5379.52 5083.13
8780.2 -379.598 -415.067 5040.74 5087.96
8782.86 -483.913 -420.21 4843.62 4501.16
8785.52 -397.119 -426.512 3619.13 4028.08
8788.19 -398.503 -388.247 3621.5 3678.91
8790.85 -369.12 -368.347 3796.11 3818.67
8793.51 -337.419 -358.533 4038.4 3916.98
8796.17 -369.059 -351.01 3916.42 3903.39
8798.83 -346.55 -355.917 3755.34 3864.19
8801.49 -352.141 -352.008 3920.82 3945.72
8804.15 -357.334 -343.93 4161 4068.34
8806.81 -322.315 -328.799 4123.21 4176.38
8809.47 -306.747 -314.982 4244.93 4252.91
8812.13 -315.883 -316.1 4390.59 4374.98
8814.79 -325.67 -327.325 4489.43 4543.66
8817.45 -340.421 -350.318 4750.95 4681.25
8820.1 -384.863 -351.435 4803.37 5161.57
8822.76 -329.022 -335.599 5930.4 5993.59
8825.42 -292.913 -319.023 7247 7094.19
8828.08 -335.133 -342.476 8105.18 7715.27
8830.73 -399.382 -358.259 7793.65 7336.81
8833.39 -340.264 -350.67 6111.62 6155.17
8836.05 -312.365 -340.064 4560.23 4845.27
8838.7 -367.562 -336.574 3863.96 3949.27
8841.36 -329.796 -336.554 3423.6 3315.21
8844.01 -312.305 -329.785 2658.08 2930.35
8846.67 -347.255 -326.714 2709.35 2713.91
8849.33 -320.581 -340.871 2774.3 2833.22
8851.98 -354.776 -350.597 3016.01 3153.18
8854.63 -376.435 -363.255 3669.23 3342.46
8857.29 -358.553 -357.075 3342.13 3533.4
8859.94 -336.238 -349.592 3588.83 3647.29
8862.6 -353.984 -329.047 4010.91 4008.33
8865.25 -296.92 -329.14 4425.26 4428.63
8867.9 -336.515 -319.704 4849.72 4657.14
8870.56 -325.677 -328.609 4696.43 4688.41
8873.21 -323.636 -338.94 4519.07 4446.49
8875.86 -367.508 -339.23 4123.96 4247.31
8878.51 -326.545 -340.846 4098.89 4227.55
8881.16 -328.486 -331.705 4459.79 4753.96
8883.81 -340.082 -358.97 5703.18 5590.7
8886.47 -408.343 -370.735 6609.12 6241.54
8889.12 -363.779 -370.513 6412.31 6035.13
8891.77 -339.417 -346.24 5083.95 5066.78
8894.42 -335.526 -346.961 3704.08 4005.27
8897.07 -365.941 -348.86 3227.8 3453.38
8899.72 -345.114 -349.762 3428.26 3608.36
8902.37 -338.231 -353.123 4169.03 4027.27
8905.01 -376.023 -342.914 4484.52 4242.27
8907.66 -314.487 -355.556 4073.25 4092.02
8910.31 -376.157 -363.452 3718.29 3742.69
8912.96 -399.713 -368.063 3436.52 3644.06
8915.61 -328.32 -345.697 3777.38 4167.14
8918.25 -309.058 -307.684 5287.52 5081.9
8920.9 -285.673 -299.678 6180.78 5802.46
8923.55 -304.304 -317.206 5939.07 5573.57
8926.2 -361.642 -337.126 4600.86 4581.94
8928.84 -345.433 -345.243 3205.89 3526.97
8931.49 -328.655 -322.5 2774.15 2879.3
8934.13 -293.414 -330.663 2657.87 2872.55
8936.78 -369.92 -336.274 3185.64 3051.79
8939.42 -345.488 -360.079 3311.88 3413.06
8942.07 -364.828 -342.903 3741.68 3666.02
8944.71 -318.392 -332.376 3944.51 3861.04
8947.36 -313.909 -315.352 3896.92 3782.67
8950 -313.754 -319.165 3506.57 3595.98
8952.64 -329.831 -326.326 3384.45 3691.4
8955.29 -335.394 -309.559 4183.19 4209.9
8957.93 -263.451 -314.928 5062.06 4982.39
8960.57 -345.941 -294.667 5701.93 5224.95
8963.22 -274.611 -315.172 4910.86 4706.8
8965.86 -324.964 -309.439 3507.62 3769.2
8968.5 -328.741 -315.692 2889.12 3007.25
8971.14 -293.37 -302.698 2625.01 2787.81
8973.78 -285.982 -297.116 2849.31 2737.33
8976.42 -311.996 -295.264 2737.66 2851.88
8979.06 -287.813 -299.124 2968.67 2911.66
8981.7 -297.563 -294.235 3028.64 3067.15
8984.34 -297.329 -284.256 3204.14 3226.79
8986.98 -257.875 -284.763 3447.59 3389.42
8989.62 -299.086 -267.473 3516.54 3424.42
8992.26 -245.457 -268.255 3309.15 3266.85
8994.9 -260.221 -260.36 2974.87 3066.67
8997.54 -275.401 -260.788 2915.99 3090.64
9000.18 -246.743 -267.579 3381.06 3419.14
9002.82 -280.593 -283.433 3960.37 3802.47
9005.45 -322.964 -292.084 4065.99 3871.55
9008.09 -272.696 -296.731 3588.29 3535.97
9010.73 -294.535 -268.569 2953.65 3109.57
9013.37 -238.476 -268.846 2786.79 2792.57
9016 -273.529 -255.169 2637.28 2706.09
9018.64 -253.502 -262.336 2694.2 2703.06
9021.27 -259.976 -259.461 2777.69 2780.97
9023.91 -264.904 -263.249 2871.01 2868.11
9026.54 -264.867 -267.599 2955.64 2929.85
9029.18 -273.027 -278.74 2962.89 3050.73
9031.81 -298.328 -276.025 3233.66 3152.94
9034.45 -256.72 -295.659 3262.26 3365.43
9037.08 -331.929 -287.825 3600.38 3536.92
9039.72 -274.826 -304.397 3748.14 3678.4
9042.35 -306.436 -303.284 3686.68 3593.27
9044.98 -328.591 -312.595 3345 3546.91
9047.61 -302.758 -316.119 3609.04 3583.67
9050.25 -317.006 -307.942 3796.97 3774.63
9052.88 -304.063 -306.5 3917.89 3776.75
9055.51 -298.43 -294.406 3615.38 3532.32
9058.14 -280.725 -300.528 3063.69 3250.8
9060.77 -322.429 -289.131 3073.32 3024.93
9063.41 -264.239 -290.923 2937.78 2988.39
9066.04 -286.1 -248.164 2954.08 2759.95
9068.67 -194.153 -206.005 2387.99 2316.91
9071.3 -137.763 -110.639 1608.67 1332.22
