wavelength spectrum_sum 3smoothed_sum spectrum_optimal 3smoothed_optimal
3505.35 6.90153 0.970555 -2.26772 0.123018
3508.27 -3.98987 9.09802 2.63677 -0.14057
3511.19 24.3824 13.4848 -0.790764 2.67335
3514.11 20.0619 18.5549 6.17405 -2.11976
3517.03 11.2204 22.713 -11.7426 1.35736
3519.95 36.8566 20.0429 9.6406 3.27433
3522.87 12.0518 21.7868 11.9249 5.07267
3525.79 16.452 10.5534 -6.34754 -4.46738
3528.71 3.15635 -1.33777 -18.9795 -8.12128
3531.63 -23.6216 1.83164 0.963246 -8.82723
3534.55 25.9602 -10.3078 -8.46539 -3.41108
3537.47 -33.2619 -15.755 -2.73109 -8.05759
3540.39 -39.9634 -35.5433 -12.9763 -0.526201
3543.31 -33.4047 -41.5928 14.1288 -2.05835
3546.23 -51.4103 -32.5902 -7.32752 5.26491
3549.15 -12.9555 -22.4946 8.99347 1.49344
3552.07 -3.11805 -3.78644 2.81436 7.53844
3554.99 4.71422 -6.11033 10.8075 5.21031
3557.91 -19.9272 -8.84796 2.00907 4.8621
3560.83 -11.3309 -6.52333 1.76974 12.5076
3563.75 11.6881 10.989 33.7439 19.8461
3566.67 32.6098 22.2491 24.0248 20.3398
3569.59 22.4495 9.4649 3.2508 9.09673
3572.51 -26.6646 8.46607 0.0146322 1.7009
3575.43 29.6133 9.81867 1.83727 8.07195
3578.35 26.5073 31.4131 22.3639 13.5062
3581.27 38.1188 34.0062 16.3173 21.1655
3584.19 37.3925 38.581 24.8153 17.3913
3587.11 40.2317 19.5783 11.0412 2.85478
3590.03 -18.8893 6.63735 -27.2922 -10.2843
3592.95 -1.43038 -6.54345 -14.6018 -17.754
3595.87 0.689304 -3.41719 -11.3681 -9.59306
3598.79 -9.51048 22.4677 -2.80931 -3.32109
3601.71 76.2242 35.2312 4.21414 0.112623
3604.63 38.9798 59.1747 -1.06696 -5.97925
3607.55 62.3201 44.6268 -21.0849 -6.03391
3610.47 32.5806 30.9507 4.05014 -3.19768
3613.39 -2.04861 17.6677 7.44174 -1.18893
3616.3 22.4712 4.59573 -15.0587 3.02853
3619.22 -6.63544 10.7401 16.7025 -3.05936
3622.14 16.3844 7.12709 -10.8219 -1.74619
3625.06 11.6323 18.3608 -11.1192 -11.994
3627.98 27.0656 21.6699 -14.0408 -5.75143
3630.9 26.3119 25.4957 7.90564 -0.727862
3633.82 23.1097 -11.6463 3.95155 9.07573
3636.74 -84.3606 -19.8692 15.37 10.1733
3639.66 1.64337 -28.9414 11.1984 15.3484
3642.58 -4.10695 -6.7166 19.4768 10.2624
3645.5 -17.6862 -6.18635 0.112051 7.31622
3648.42 3.23413 -18.3247 2.35981 10.3018
3651.34 -40.522 -53.5702 28.4336 17.5407
3654.26 -123.423 -67.3989 21.8288 11.6073
3657.18 -38.2518 -77.8453 -15.4403 1.07277
3660.09 -71.8612 -47.8387 -3.17015 10.3459
3663.01 -33.403 -67.5178 49.6481 17.1309
3665.93 -97.2892 -82.9003 4.91469 26.6545
3668.85 -118.009 -72.4224 25.4008 17.0037
3671.77 -1.96923 -47.7504 20.6957 17.1128
3674.69 -23.2734 -12.7952 5.24199 4.53594
3677.61 -13.143 -40.9848 -12.3299 5.44007
3680.53 -86.538 -41.1156 23.4081 -1.73519
3683.45 -23.6659 -51.1015 -16.2838 6.78634
3686.37 -43.1005 -35.8514 13.2347 8.10025
3689.29 -40.7879 -36.9311 27.3498 23.8752
3692.2 -26.9048 -45.2271 31.041 10.7961
3695.12 -67.9885 -90.6739 -26.0027 5.04819
3698.04 -177.128 -113.593 10.1062 -0.943974
3700.96 -95.6624 -102.158 13.0646 9.26436
3703.88 -33.6839 -51.9911 4.62232 14.6749
3706.8 -26.6271 -30.735 26.3379 14.5008
3709.72 -31.8941 -34.3682 12.5421 10.4313
3712.64 -44.5834 -11.9533 -7.58608 8.83879
3715.56 40.6177 14.0405 21.5603 21.4239
3718.47 46.0871 11.2963 50.2975 35.4302
3721.39 -52.8158 17.1118 34.4326 37.3262
3724.31 58.0641 -11.4186 27.2484 35.4945
3727.23 -39.504 25.4968 44.8024 35.6473
3730.15 57.9303 27.5436 34.891 25.6977
3733.07 64.2045 60.4489 -2.60025 22.6762
3735.99 59.2118 54.9316 35.7379 6.81322
3738.91 41.3786 39.8609 -12.698 20.5073
3741.82 18.9923 54.7924 38.482 22.5512
3744.74 104.006 69.871 41.8696 32.604
3747.66 86.6141 18.0638 17.4603 24.5971
3750.58 -136.429 -26.545 14.4615 10.1282
3753.5 -29.8199 -59.2682 -1.53725 4.72554
3756.42 -11.5556 -13.7224 1.25239 8.13455
3759.33 0.208364 -15.7922 24.6885 16.0298
3762.25 -36.0293 -15.5621 22.1485 20.4729
3765.17 -10.8655 -40.0479 14.5816 18.3789
3768.09 -73.2489 -40.0633 18.4067 14.5416
3771.01 -36.0755 -66.6882 10.6366 15.0023
3773.93 -90.7402 -81.311 15.9635 15.366
3776.84 -117.117 -151.321 19.4979 13.9802
3779.76 -246.106 -157.301 6.47933 -0.938082
3782.68 -108.679 -141.465 -28.7915 -16.1111
3785.6 -69.6102 -74.4657 -26.0212 -22.2453
3788.52 -45.1081 -50.8028 -11.9233 -14.1379
3791.44 -37.6903 -35.2783 -4.46916 -1.51092
3794.35 -23.0365 -50.4964 11.8597 11.8453
3797.27 -90.7623 -65.5464 28.1453 9.23079
3800.19 -82.8404 -81.2134 -12.3127 7.36426
3803.11 -70.0376 -136.24 6.2601 6.42617
3806.03 -255.842 -126.429 25.3311 18.5548
3808.94 -53.4087 -116.794 24.0731 8.24847
3811.86 -41.1319 -28.6172 -24.6588 2.06946
3814.78 8.68892 -2.12274 6.79403 -2.9776
3817.7 26.0748 36.362 8.93195 1.49567
3820.62 74.3223 67.0265 -11.239 -4.25114
3823.53 100.683 109.269 -10.4464 -11.1141
3826.45 152.801 133.763 -11.6569 -14.3425
3829.37 147.805 168.469 -20.9242 -5.23935
3832.29 204.801 131.857 16.8631 -3.05185
3835.21 42.967 121.357 -5.09441 1.7253
3838.12 116.304 20.3934 -6.59278 -5.1401
3841.04 -98.0911 -0.249705 -3.73312 -10.626
3843.96 -18.9623 -38.3226 -21.5522 -9.67678
3846.88 2.08546 -2.63252 -3.74503 -2.70117
3849.79 8.97924 6.98271 17.1937 -3.39104
3852.71 9.88344 -25.3271 -23.6218 1.37908
3855.63 -94.8441 -16.7383 10.5653 -3.65803
3858.55 34.7458 -27.0275 2.08237 4.26453
3861.46 -20.9841 -3.84565 0.145904 -0.38531
3864.38 -25.2986 -10.2169 -3.3842 -7.94664
3867.3 15.6322 -8.38493 -20.6016 -17.7505
3870.22 -15.4884 -6.21837 -29.2657 -23.0207
3873.13 -18.7989 -9.13172 -19.1948 -12.9907
3876.05 6.89213 -3.90633 9.48844 -15.6708
3878.97 0.187799 8.36688 -37.306 -20.1078
3881.89 18.0207 37.4785 -32.5057 -39.4604
3884.8 94.227 61.5802 -48.5696 -39.2073
3887.72 72.4929 46.3234 -36.5467 -41.1566
3890.64 -27.7497 12.6469 -38.3534 -23.9344
3893.55 -6.80243 -35.8215 3.09694 -2.12434
3896.47 -72.9123 -57.6585 28.8835 7.17882
3899.39 -93.2607 -81.4644 -10.444 -10.8179
3902.31 -78.2202 -61.9261 -50.8932 -25.3446
3905.22 -14.2974 -63.8861 -14.6965 -24.4958
3908.14 -99.1408 -82.3439 -7.8978 0.649959
3911.06 -133.594 -172.468 24.5441 -1.28646
3913.97 -284.669 -204.34 -20.5057 -6.00966
3916.89 -194.757 -191.825 -22.0674 -0.266682
3919.81 -96.0487 -76.8326 41.7731 -1.69333
3922.72 60.308 51.8828 -24.7857 -4.9793
3925.64 191.389 148.7 -31.9253 -34.2116
3928.56 194.404 225.953 -45.9237 -37.4854
3931.47 292.067 260.191 -34.6072 -39.9318
3934.39 294.103 263.49 -39.2646 -38.4123
3937.31 204.299 231.332 -41.365 -36.4659
3940.23 195.594 133.178 -28.768 -31.6378
3943.14 -0.358681 66.7715 -24.7804 -23.2613
3946.06 5.07926 -9.42445 -16.2355 -4.04242
3948.97 -32.9939 -39.1922 28.8887 -4.20616
3951.89 -89.6619 -67.724 -25.2717 -1.54424
3954.81 -80.5161 -69.1423 -8.24972 -41.91
3957.72 -37.2488 -25.7601 -92.2087 -67.0727
3960.64 40.4845 7.82061 -100.76 -104.796
3963.56 20.2262 108.869 -121.42 -106.302
3966.47 265.896 159.61 -96.7271 -107.772
3969.39 192.708 186.859 -105.17 -82.1206
3972.31 101.973 48.4964 -44.4643 -72.7784
3975.22 -149.191 -58.6749 -68.7006 -54.7959
3978.14 -128.806 -164.282 -51.223 -64.5914
3981.06 -214.849 -173.309 -73.8505 -55.6398
3983.97 -176.273 -208.196 -41.846 -44.4631
3986.89 -233.467 -220.899 -17.6928 -21.148
3989.8 -252.956 -259.372 -3.9053 -37.5788
3992.72 -291.692 -346.929 -91.1383 -16.1394
3995.64 -496.141 -337.869 46.6254 -17.3572
3998.55 -225.774 -415.629 -7.55861 18.5788
4001.47 -524.971 -325.315 16.6697 16.2017
4004.38 -225.198 -346.198 39.4939 -4.8042
4007.3 -288.425 -268.532 -70.5762 -12.6848
4010.22 -291.973 -388.19 -6.97225 -16.7322
4013.13 -584.174 -384.316 27.3519 23.0118
4016.05 -276.802 -497.433 48.6559 4.27649
4018.96 -631.324 -410.786 -63.1783 -17.321
4021.88 -324.233 -430.949 -37.4406 -44.78
4024.79 -337.289 -445.157 -33.721 -21.1313
4027.71 -673.949 -431.288 7.76767 -23.6457
4030.63 -282.627 -414.032 -44.9837 -29.4633
4033.54 -285.519 -289.286 -51.1738 -42.4706
4036.46 -299.71 -311.12 -31.2543 -38.8092
4039.37 -348.131 -304.096 -33.9996 -24.2627
4042.29 -264.448 -278.28 -7.53432 -12.1083
4045.2 -222.262 -246.095 5.20914 -12.6554
4048.12 -251.576 -241.038 -35.6409 -2.22541
4051.03 -249.276 -246.508 23.7555 14.2389
4053.95 -238.672 -271.333 54.6022 37.6331
4056.87 -326.051 -387.17 34.5415 12.99
4059.78 -596.786 -381.361 -50.1737 -12.7879
4062.7 -221.247 -372.504 -22.7315 4.06075
4065.61 -299.478 -280.84 85.0874 8.89505
4068.53 -321.795 -390.151 -35.6708 28.8953
4071.44 -549.181 -367.874 37.2693 0.743387
4074.36 -232.645 -372.966 0.631677 -7.28539
4077.27 -337.071 -299.788 -59.7571 -29.5953
4080.19 -329.648 -354.921 -29.6606 -39.1319
4083.1 -398.043 -391.373 -27.9779 -30.8819
4086.02 -446.428 -556.957 -35.0072 -13.5134
4088.93 -826.399 -697.921 22.4449 -19.1499
4091.85 -820.936 -675.919 -44.8873 -28.889
4094.76 -380.423 -495.901 -64.2246 -40.5581
4097.68 -286.345 -311.018 -12.5624 -39.146
4100.59 -266.287 -294.198 -40.651 -13.5952
4103.51 -329.963 -436.707 12.4276 -8.37816
4106.42 -713.871 -600.442 3.08883 13.311
4109.33 -757.491 -673.461 24.4164 -4.3831
4112.25 -549.021 -711.855 -40.6545 -7.98618
4115.16 -829.053 -627.412 -7.72043 -14.8982
4118.08 -504.163 -618.441 3.68034 23.1464
4120.99 -522.106 -501.27 73.4793 26.4069
4123.91 -477.54 -506.503 2.06099 15.2667
4126.82 -519.862 -486.433 -29.7401 0.505185
4129.74 -461.896 -466.349 29.1946 25.6508
4132.65 -417.29 -449.81 77.4979 45.9506
4135.56 -470.242 -449.234 31.1594 50.0252
4138.48 -460.168 -425.109 41.4184 53.8966
4141.39 -344.916 -413.075 89.112 44.6534
4144.31 -434.141 -421.315 3.42982 32.8174
4147.22 -484.889 -471.515 5.91044 7.72335
4150.14 -495.515 -480.059 13.8298 24.8925
4153.05 -459.773 -575.211 54.9372 48.0018
4155.96 -770.343 -699.393 75.2384 72.7167
4158.88 -868.062 -722.793 87.9744 88.6236
4161.79 -529.975 -648.343 102.658 80.0485
4164.71 -546.993 -525.359 49.5132 80.5385
4167.62 -499.108 -507.653 89.4445 84.3751
4170.53 -476.859 -462.071 114.167 87.7849
4173.45 -410.247 -467.742 59.7429 62.5847
4176.36 -516.122 -463.036 13.8439 53.6631
4179.27 -462.741 -477.602 87.4026 46.5443
4182.19 -453.944 -441.902 38.3864 57.4846
4185.1 -409.021 -444.711 46.6648 51.8647
4188.02 -471.166 -449.257 70.543 83.3603
4190.93 -467.583 -455.364 132.873 98.3912
4193.84 -427.344 -443.781 91.7575 98.1912
4196.76 -436.416 -435.5 69.9429 96.1331
4199.67 -442.739 -421.237 126.699 89.2228
4202.58 -384.556 -449.904 71.0265 78.2059
4205.5 -522.418 -460.195 36.8923 48.5306
4208.41 -473.612 -500.639 37.6728 64.2646
4211.32 -505.889 -599.799 118.229 75.0883
4214.24 -819.897 -612.583 69.3636 97.7381
4217.15 -511.963 -601.701 105.622 79.9289
4220.06 -473.243 -479.639 64.8011 82.3779
4222.97 -453.712 -412.037 76.7106 62.8167
4225.89 -309.156 -366.862 46.9385 54.9779
4228.8 -337.718 -377.244 41.2845 43.5227
4231.71 -484.859 -414.877 42.3451 38.5554
4234.63 -422.055 -601.163 32.0367 43.2053
4237.54 -896.573 -730.266 55.2342 41.3502
4240.45 -872.168 -760.285 36.7797 62.8599
4243.36 -512.115 -607.221 96.5657 76.8914
4246.28 -437.381 -468.343 97.3287 101.535
4249.19 -455.534 -571.649 110.712 95.1252
4252.1 -822.034 -707.227 77.3347 83.2203
4255.02 -844.115 -711.575 61.6142 68.1765
4257.93 -468.576 -602.71 65.5806 62.244
4260.84 -495.44 -519.931 59.5372 62.1686
4263.75 -595.776 -522.66 61.3878 79.5293
4266.67 -476.763 -463.707 117.663 73.8016
4269.58 -318.583 -399.898 42.3542 82.4159
4272.49 -404.348 -379.478 87.2309 63.9284
4275.4 -415.502 -594.645 62.2001 102.285
4278.31 -964.084 -609.781 157.423 117.813
4281.23 -449.758 -748.706 133.816 127.038
4284.14 -832.278 -554.984 89.8742 87.3932
4287.05 -382.915 -543.152 38.4892 79.9694
4289.96 -414.263 -412.759 111.545 88.1841
4292.87 -441.099 -393.254 114.518 111.96
4295.79 -324.401 -344.072 109.817 112.077
4298.7 -266.717 -273.224 111.897 100.714
4301.61 -228.554 -345.123 80.4274 88.1118
4304.52 -540.099 -308.565 72.0107 81.0554
4307.43 -157.041 -331.367 90.7281 90.8855
4310.35 -296.96 -284.635 109.918 112.492
4313.26 -399.902 -550.328 136.829 115.766
4316.17 -954.122 -656.775 100.55 87.9391
4319.08 -616.301 -723.842 26.4381 97.0533
4321.99 -601.103 -603.741 164.172 85.3452
4324.9 -593.818 -754.721 65.4256 103.603
4327.81 -1069.24 -782.446 81.213 62.6471
4330.73 -684.28 -778.239 41.3028 57.8587
4333.64 -581.195 -639.659 51.0604 61.6053
4336.55 -653.504 -581.056 92.4526 82.1972
4339.46 -508.47 -556.413 103.079 103.328
4342.37 -507.264 -550.834 114.453 92.019
4345.28 -636.768 -632.678 58.5251 60.2854
4348.19 -754 -670.905 7.87795 36.8291
4351.1 -621.945 -691.362 44.0842 16.86
4354.02 -698.141 -699.734 -1.38215 16.4945
4356.93 -779.114 -739.905 6.78146 31.2075
4359.84 -742.459 -755.952 88.2233 63.2939
4362.75 -746.285 -794.495 94.8771 79.4837
4365.66 -894.74 -823.055 55.3508 50.4368
4368.57 -828.141 -1000.63 1.08252 33.5928
4371.48 -1279.02 -1121.44 44.345 43.9508
4374.39 -1257.15 -1089.25 86.4249 79.7843
4377.3 -731.58 -896.489 108.583 79.9831
4380.21 -700.732 -804.319 44.9416 67.0401
4383.12 -980.645 -772.223 47.5958 35.4879
4386.03 -635.292 -938.863 13.9265 23.9375
4388.94 -1200.65 -830.394 10.2902 48.7536
4391.85 -655.237 -847.053 122.044 85.7257
4394.76 -685.271 -863.805 124.843 114.145
4397.67 -1250.91 -890.812 95.5488 91.5774
4400.58 -736.258 -896.827 54.3404 81.1508
4403.49 -703.316 -727.113 93.5633 77.6364
4406.4 -741.764 -893.458 85.0055 98.8481
4409.31 -1235.29 -926.44 117.976 123.434
4412.22 -802.263 -947.623 167.321 160.147
4415.13 -805.311 -831.032 195.143 153.88
4418.04 -885.522 -839.362 99.1748 147.871
4420.95 -827.251 -851.231 149.294 143.426
4423.86 -840.918 -840.407 181.808 153.607
4426.77 -853.052 -837.99 129.72 174.553
4429.68 -820 -995.981 212.13 192.049
4432.59 -1314.89 -1006.41 234.298 227.552
4435.5 -884.326 -1220.85 236.23 222.535
4438.41 -1463.33 -1093.41 197.079 199.539
4441.32 -932.589 -1124.1 165.31 199.47
4444.23 -976.372 -922.66 236.022 184.5
4447.14 -859.018 -1096.72 152.169 190.082
4450.05 -1454.76 -1049.92 182.054 153.235
4452.96 -835.977 -1038.03 125.483 160.7
4455.87 -823.35 -834.647 174.562 132.261
4458.78 -844.614 -849.674 96.7365 136.297
4461.69 -881.058 -880.288 137.593 143.565
4464.6 -915.192 -915.036 196.366 146.322
4467.5 -948.857 -1137.1 105.005 133.725
4470.41 -1547.25 -1369.61 99.8037 121.922
4473.32 -1612.72 -1403.67 160.958 123.246
4476.23 -1051.05 -1231.18 108.975 140.186
4479.14 -1029.77 -1016.64 150.626 123.472
4482.05 -969.09 -1007.65 110.815 104.824
4484.96 -1024.09 -1017.05 53.0317 67.0186
4487.87 -1057.97 -1047.61 37.209 52.1968
4490.77 -1060.76 -1235.94 66.3496 71.8009
4493.68 -1589.09 -1255 111.844 77.7714
4496.59 -1115.14 -1261.33 55.1205 114.231
4499.5 -1079.75 -1110.79 175.729 113.028
4502.41 -1137.47 -1134.11 108.234 116.311
4505.32 -1185.1 -1150.41 64.9704 78.4826
4508.22 -1128.65 -1371.4 62.2439 83.1545
4511.13 -1800.47 -1352.82 122.249 93.9581
4514.04 -1129.33 -1355.5 97.3813 124.12
4516.95 -1136.7 -1144.6 152.729 117.457
4519.86 -1167.78 -1150.83 102.262 102.166
4522.76 -1148 -1103.29 51.5064 82.1359
4525.67 -994.103 -1057.74 92.6397 87.9785
4528.58 -1031.12 -1219.4 119.789 92.7421
4531.49 -1632.99 -1223.6 65.7972 80.302
4534.4 -1006.68 -1425.89 55.3193 53.6032
4537.3 -1637.99 -1237.74 39.6931 76.3144
4540.21 -1068.55 -1285.62 133.931 98.7238
4543.12 -1150.32 -1094.98 122.548 114.325
4546.03 -1066.08 -1322.83 86.4959 137.038
4548.93 -1752.08 -1270.37 202.07 144.639
4551.84 -992.951 -1290.62 145.351 160.807
4554.75 -1126.82 -1066.54 135 154.465
4557.66 -1079.85 -1126.14 183.044 160.755
4560.56 -1171.76 -1145.11 164.22 143.011
4563.47 -1183.7 -1171.16 81.7701 101.392
4566.38 -1158.03 -1145.22 58.1851 96.4655
4569.28 -1093.92 -1124.64 149.441 128.664
4572.19 -1121.97 -1132.1 178.365 147.962
4575.1 -1180.42 -1168.15 116.081 125.623
4578 -1202.07 -1169.89 82.4222 102.936
4580.91 -1127.19 -1172.18 110.306 126.309
4583.82 -1187.28 -1378.93 186.199 134.395
4586.73 -1822.33 -1645.1 106.679 192.445
4589.63 -1925.71 -1617.74 284.457 210.112
4592.54 -1105.18 -1374.55 239.201 220.2
4595.44 -1092.77 -1142.64 136.943 174.919
4598.35 -1229.98 -1142.34 148.613 136.684
4601.26 -1104.28 -1358.16 124.498 140.611
4604.16 -1740.2 -1360.09 148.724 143.49
4607.07 -1235.8 -1436.23 157.248 159.723
4609.98 -1332.67 -1482.97 173.198 172.997
4612.88 -1880.44 -1479.41 188.543 166.556
4615.79 -1225.1 -1441.95 137.928 148.888
4618.69 -1220.3 -1228.17 120.194 122.604
4621.6 -1239.11 -1245.44 109.691 133.287
4624.51 -1276.89 -1511.26 169.977 156.467
4627.41 -2017.78 -1737.54 189.733 158.44
4630.32 -1917.95 -1738.63 115.609 140.72
4633.22 -1280.16 -1511.91 116.817 89.1867
4636.13 -1337.63 -1273.48 35.134 83.7141
4639.04 -1202.66 -1263.27 99.1914 77.6976
4641.94 -1249.52 -1242.77 98.7673 109.161
4644.85 -1276.14 -1236.36 129.524 108.497
4647.75 -1183.43 -1232.03 97.1986 118.586
4650.66 -1236.53 -1183.08 129.035 138.108
4653.56 -1129.27 -1203.94 188.091 171.232
4656.47 -1246.01 -1213.94 196.569 169.994
4659.37 -1266.54 -1247.15 125.323 156.073
4662.28 -1228.9 -1261.59 146.327 136.039
4665.18 -1289.34 -1242.72 136.468 121.135
4668.09 -1209.93 -1238.09 80.6109 100.925
4670.99 -1215 -1215.99 85.6965 103.057
4673.9 -1223.03 -1237.69 142.863 114.578
4676.8 -1275.03 -1253.23 115.174 132.224
4679.71 -1261.62 -1260.21 138.633 134.202
4682.61 -1243.98 -1476.6 148.8 141.296
4685.52 -1924.22 -1716.71 136.456 136.913
4688.42 -1981.94 -1746.29 125.484 137.057
4691.33 -1332.72 -1552.75 149.231 134.158
4694.23 -1343.59 -1344.68 127.758 112.361
4697.13 -1357.74 -1355.34 60.0932 86.9228
4700.04 -1364.71 -1330.07 72.9172 74.6346
4702.94 -1267.76 -1293.44 90.8935 74.9564
4705.85 -1247.86 -1200.75 61.0586 85.4116
4708.75 -1086.63 -1435.36 104.283 97.0222
4711.66 -1971.58 -1736.41 125.725 118.719
4714.56 -2151.02 -1828.28 126.148 102.365
4717.46 -1362.24 -1626.04 55.2232 78.7248
4720.37 -1364.86 -1370.62 54.8032 49.4106
4723.27 -1384.77 -1348.95 38.2055 58.8236
4726.18 -1297.22 -1352.84 83.4622 74.8652
4729.08 -1376.52 -1562.99 102.928 98.6493
4731.98 -2015.22 -1816.75 109.558 99.5168
4734.89 -2058.49 -1782.49 86.0645 76.877
4737.79 -1273.76 -1578.26 35.0086 77.3017
4740.69 -1402.53 -1347.29 110.832 66.9405
4743.6 -1365.57 -1373.33 54.9808 83.1833
4746.5 -1351.89 -1348.27 83.7371 90.5393
4749.4 -1327.36 -1591.96 132.9 116.992
4752.31 -2096.63 -1601.87 134.338 114.266
4755.21 -1381.6 -1604.85 75.5596 71.8958
4758.11 -1336.31 -1358.38 5.78963 24.727
4761.01 -1357.21 -1350.98 -7.16809 -13.4901
4763.92 -1359.41 -1351.72 -39.0918 11.8716
4766.82 -1338.54 -1586.17 81.8748 49.8217
4769.72 -2060.55 -1582.48 106.682 120.432
4772.63 -1348.36 -1605.13 172.738 124.952
4775.53 -1406.47 -1382.88 95.4349 154.908
4778.43 -1393.81 -1437.66 196.55 124.006
4781.33 -1512.69 -1680.75 80.0331 109.478
4784.24 -2135.76 -1662.95 51.8514 76.2272
4787.14 -1340.41 -1617.59 96.7971 45.9236
4790.04 -1376.61 -1397.23 -10.8778 38.9215
4792.94 -1474.68 -1427.63 30.8452 27.3542
4795.85 -1431.59 -1433.5 62.0951 50.6484
4798.75 -1394.23 -1417.57 59.0048 70.3908
4801.65 -1426.9 -1387.41 90.0726 76.551
4804.55 -1341.1 -1381.34 80.5757 70.0021
4807.45 -1376.03 -1368.42 39.358 63.2247
4810.35 -1388.15 -1415.7 69.7404 60.6143
4813.26 -1482.94 -1446.43 72.7446 49.4711
4816.16 -1468.21 -1472.71 5.9282 46.3003
4819.06 -1466.98 -1462.32 60.228 54.701
4821.96 -1451.77 -1464.6 97.9469 85.9837
4824.86 -1475.06 -1452.45 99.7761 119.579
4827.76 -1430.52 -1685.91 161.015 98.387
4830.67 -2152.15 -1690.28 34.3699 88.6624
4833.57 -1488.16 -1692.36 70.6026 44.4503
4836.47 -1436.77 -1467.4 28.3785 57.1681
4839.37 -1477.29 -1480.43 72.5231 83.1185
4842.27 -1527.24 -1502.28 148.454 131.326
4845.17 -1502.32 -1714.29 173.001 125.972
4848.07 -2113.31 -1927.18 56.4627 125.5
4850.97 -2165.92 -1883.89 147.036 97.3665
4853.87 -1372.45 -1571.85 88.6011 100.924
4856.77 -1177.19 -1183.74 67.134 76.2632
4859.68 -1001.57 -1033.95 73.0545 62.0538
4862.58 -923.088 -971.526 45.9729 60.1611
4865.48 -989.922 -987.371 61.4558 70.5143
4868.38 -1049.1 -1043.77 104.114 73.4155
4871.28 -1092.3 -1122.64 54.6766 77.4093
4874.18 -1226.51 -1198.42 73.4371 71.6729
4877.08 -1276.46 -1274.72 86.9051 61.4826
4879.98 -1321.18 -1549.95 24.1057 51.5086
4882.88 -2052.2 -1579.2 43.515 26.3858
4885.78 -1364.21 -1570.75 11.5366 48.8867
4888.68 -1295.85 -1306.25 91.6084 68.6867
4891.58 -1258.69 -1484.04 102.915 114.52
4894.48 -1897.6 -1687.41 149.037 101.195
4897.38 -1905.96 -1904.28 51.6329 105.227
4900.28 -1909.3 -2205.24 115.011 77.5425
4903.18 -2800.46 -2246.14 65.9838 72.7628
4906.08 -2028.67 -2548.47 37.2938 67.225
4908.98 -2816.27 -2264.31 98.3973 63.9818
4911.87 -1947.99 -2227.85 56.2543 77.3341
4914.77 -1919.3 -1921.8 77.3508 60.7955
4917.67 -1898.1 -1860.17 48.7813 55.7976
4920.57 -1763.1 -1793.6 41.2606 45.8764
4923.47 -1719.62 -1782.93 47.5872 59.2268
4926.37 -1866.07 -1847.79 88.8325 61.3702
4929.27 -1957.69 -2202.28 47.6908 68.5933
4932.17 -2783.08 -2226.89 69.2564 44.8229
4935.07 -1939.9 -2174.67 17.5216 44.1883
4937.97 -1801.04 -2134.87 45.7869 39.2293
4940.86 -2663.67 -2446.92 54.3793 74.395
4943.76 -2876.05 -2816.33 123.019 76.5258
4946.66 -2909.27 -2599.43 52.1791 75.7893
4949.56 -2012.98 -2299.03 52.1699 41.484
4952.46 -1974.85 -2015.09 20.103 28.0311
4955.36 -2057.45 -1985.82 11.8203 16.9107
4958.25 -1925.15 -1973.62 18.8088 10.8766
4961.15 -1938.26 -1943.53 2.00067 38.9092
4964.05 -1967.18 -2281.81 95.9181 57.4424
4966.95 -2939.97 -2322.22 74.4083 83.347
4969.85 -2059.5 -2367.75 79.7145 70.8451
4972.74 -2103.78 -2380.73 58.4124 61.9345
4975.64 -2978.93 -2662.18 47.6767 64.1986
4978.54 -2903.82 -2624.5 86.5066 43.9154
4981.44 -1990.75 -2257.99 -2.43705 44.9247
4984.33 -1879.38 -1928.13 50.7046 8.1867
4987.23 -1914.27 -1903.29 -23.7074 27.4594
4990.13 -1916.21 -1949.39 55.3811 7.48729
4993.03 -2017.71 -2258.84 -9.21175 40.2863
4995.92 -2842.61 -2295.98 74.6896 49.0938
4998.82 -2027.62 -2293.03 81.8035 71.7391
5001.72 -2008.87 -1979.65 58.7244 64.0629
5004.61 -1902.46 -1958.59 51.6609 60.1243
5007.51 -1964.45 -2201.18 69.9877 43.9975
5010.41 -2736.64 -2479.2 10.3439 44.5704
5013.3 -2736.5 -2446.32 53.3796 6.95803
5016.2 -1865.82 -2150.86 -42.8494 13.953
5019.1 -1850.25 -1885.3 31.3289 11.846
5021.99 -1939.82 -1890.78 47.0585 73.9767
5024.89 -1882.27 -1935.99 143.543 92.8395
5027.79 -1985.86 -1957.66 87.9173 95.1557
5030.68 -2004.84 -1977.66 54.007 46.6217
5033.58 -1942.29 -2073.6 -2.05916 37.4163
5036.48 -2273.66 -2215.45 60.3011 32.6637
5039.37 -2430.4 -2251.83 39.7491 36.1882
5042.27 -2051.41 -2156.05 8.51429 9.32085
5045.16 -1986.34 -1999.86 -20.3008 7.84968
5048.06 -1961.84 -1985.13 35.3356 -7.73773
5050.96 -2007.22 -2015.21 -38.2479 12.7484
5053.85 -2076.57 -2354.18 41.1575 27.1589
5056.75 -2978.75 -2403.81 78.5671 55.718
5059.64 -2156.1 -2409.09 47.4294 61.8526
5062.54 -2092.41 -2135.92 59.5613 47.9423
5065.43 -2159.26 -2095.9 36.8362 44.2395
5068.33 -2036.04 -2088.17 36.321 35.2973
5071.22 -2069.22 -2076.25 32.7347 33.0649
5074.12 -2123.48 -2077.7 30.1391 30.1608
5077.01 -2040.39 -2368.18 27.6087 22.2618
5079.91 -2940.66 -2327.63 9.03744 14.9097
5082.8 -2001.83 -2301.02 8.08287 17.3961
5085.7 -1960.57 -1987.46 35.068 17.456
5088.59 -1999.97 -2016.81 9.21721 34.7823
5091.49 -2089.87 -2081.24 60.0618 42.7835
5094.38 -2153.88 -2132.07 59.0716 64.757
5097.28 -2152.47 -2116.83 75.1376 74.7622
5100.17 -2044.16 -2084.62 90.0776 47.359
5103.06 -2057.23 -2008.9 -23.138 28.608
5105.96 -1925.31 -2034.66 18.8845 16.1006
5108.85 -2121.45 -2024 52.5554 56.7011
5111.75 -2025.25 -2082 98.6635 74.32
5114.64 -2099.31 -2093.59 71.741 76.8443
5117.53 -2156.22 -2163.51 60.1285 81.8278
5120.43 -2235 -2166.87 113.614 63.3386
5123.32 -2109.41 -2469.25 16.2736 58.6462
5126.22 -3063.34 -2364.3 46.0513 44.6338
5129.11 -1920.14 -2347.18 71.5765 49.5409
5132 -2058.07 -2020.32 30.9948 30.4648
5134.9 -2082.75 -2058.38 -11.1769 21.6803
5137.79 -2034.31 -2026.99 45.2229 17.1375
5140.68 -1963.9 -1997.77 17.3666 37.2112
5143.58 -1995.08 -2007.15 49.0442 38.5034
5146.47 -2062.47 -2009.71 49.0995 61.0018
5149.36 -1971.58 -2015.98 84.8618 63.3876
5152.25 -2013.9 -1996.2 56.2016 57.523
5155.15 -2003.13 -2042.17 31.5057 63.9188
5158.04 -2109.49 -2091.85 104.049 75.0165
5160.93 -2162.94 -2120.68 89.4948 87.5713
5163.83 -2089.6 -2285.85 69.17 83.4068
5166.72 -2605.01 -2125.38 91.5556 70.5615
5169.61 -1681.54 -1960.33 50.9587 60.0057
5172.5 -1594.45 -1645.03 37.5027 55.45
5175.39 -1659.1 -1695.41 77.8885 64.1598
5178.29 -1832.66 -1752.01 77.0881 62.0672
5181.18 -1764.26 -1752.16 31.2248 53.6991
5184.07 -1659.55 -1697.85 52.7845 31.0598
5186.96 -1669.74 -1699.13 9.16998 13.1211
5189.85 -1768.1 -1793.4 -22.5911 19.5381
5192.75 -1942.38 -1866.21 72.0352 46.0214
5195.64 -1888.14 -1941.31 88.62 80.192
5198.53 -1993.41 -1986 79.9207 88.8094
5201.42 -2076.45 -1980.6 97.8875 100.109
5204.31 -1871.93 -1943.76 122.518 93.1599
5207.2 -1882.89 -1917.38 59.0743 91.7104
5210.09 -1997.31 -2280.16 93.539 69.7899
5212.99 -2960.28 -2346.5 56.7565 81.247
5215.88 -2081.91 -2357.49 93.4457 69.1171
5218.77 -2030.28 -2105.4 57.149 71.958
5221.66 -2204 -2440.59 65.2794 69.4145
5224.55 -3087.5 -2765.12 85.815 79.8812
5227.44 -3003.88 -2696.46 88.5492 47.5112
5230.33 -1998 -2646.06 -31.8305 19.5537
5233.22 -2936.3 -2338.61 1.94244 -7.2538
5236.11 -2081.53 -2693.11 8.12663 18.8445
5239 -3061.51 -2433.2 46.4644 34.4928
5241.89 -2156.57 -2469.8 48.8875 67.6385
5244.78 -2191.33 -2172.49 107.564 67.4497
5247.67 -2169.57 -2184.86 45.898 74.3903
5250.56 -2193.68 -2149.96 69.7092 52.6659
5253.45 -2086.61 -2403.88 42.3904 59.8231
5256.34 -2931.34 -2700.34 67.3696 58.4128
5259.23 -3083.07 -2719.01 65.4784 42.3675
5262.12 -2142.61 -2397.27 -5.74555 42.6965
5265.01 -1966.13 -2002.15 68.3567 57.9291
5267.9 -1897.7 -1930.01 111.176 76.8017
5270.79 -1926.19 -1896.57 50.8724 99.4446
5273.68 -1865.83 -1961.2 136.285 93.1821
5276.57 -2091.59 -2011.09 92.3888 118.197
5279.46 -2075.84 -2068.37 125.916 92.3693
5282.35 -2037.68 -2058.19 58.8025 94.4339
5285.23 -2061.06 -2421.55 98.5827 86.7445
5288.12 -3165.9 -2481.35 102.848 88.2353
5291.01 -2217.09 -2850.22 63.275 99.7929
5293.9 -3167.68 -2542.98 133.256 118.964
5296.79 -2244.16 -2549.34 160.362 131.325
5299.68 -2236.18 -2232.26 100.357 116.131
5302.57 -2216.43 -2545.06 87.6725 66.2762
5305.45 -3182.56 -2560.16 10.7992 33.6627
5308.34 -2281.5 -2924.36 2.51651 8.22167
5311.23 -3309.03 -2634.41 11.3493 -59.107
5314.12 -2312.69 -2644.95 -191.187 -143.479
5317.01 -2313.12 -2277.23 -250.601 -233.996
5319.89 -2205.89 -2248.96 -260.202 -212.5
5322.78 -2227.86 -2174.62 -126.697 -127.789
5325.67 -2090.1 -2461.25 3.53272 -116.145
5328.56 -3065.79 -2419.04 -225.27 -187.422
5331.45 -2101.22 -2741.84 -340.528 -289.751
5334.33 -3058.52 -2457.84 -303.454 -341.965
5337.22 -2213.78 -2461.32 -381.913 -317.688
5340.11 -2111.67 -2138.2 -267.697 -301.358
5342.99 -2089.14 -2435.79 -254.466 -273.88
5345.88 -3106.57 -2759.95 -299.478 -270.921
5348.77 -3084.12 -3112.93 -258.819 -283.938
5351.65 -3148.1 -3174.33 -293.518 -294.738
5354.54 -3290.77 -2936.64 -331.878 -316.728
5357.43 -2371.05 -2676.59 -324.788 -295.041
5360.31 -2367.94 -2354.41 -228.456 -183.634
5363.2 -2324.22 -2662.56 2.3417 -4.92979
5366.09 -3295.51 -2596.6 211.324 102.473
5368.97 -2170.06 -2539.9 93.7533 130.3
5371.86 -2154.13 -2474.3 85.8234 97.961
5374.75 -3098.71 -2469.44 114.306 105.48
5377.63 -2155.49 -2488.11 116.31 116.696
5380.52 -2210.11 -2246.7 119.473 93.5485
5383.4 -2374.5 -2313.51 44.8625 85.276
5386.29 -2355.9 -2330.78 91.4922 95.1198
5389.17 -2261.94 -2281.46 149.005 93.2241
5392.06 -2226.55 -2237.31 39.1754 59.6648
5394.95 -2223.45 -2521.2 -9.18594 31.1702
5397.83 -3113.59 -2488.49 63.5212 29.2813
5400.72 -2128.44 -2470.13 33.5086 45.7792
5403.6 -2168.35 -2147.52 40.3078 35.1552
5406.49 -2145.78 -2094.21 31.6493 44.8774
5409.37 -1968.51 -2072.27 62.6751 64.1259
5412.26 -2102.51 -2080.71 98.0532 90.2453
5415.14 -2171.1 -2181.18 110.008 78.4237
5418.03 -2269.92 -2208.61 27.2102 81.1038
5420.91 -2184.8 -2204.78 106.093 73.3458
5423.79 -2159.61 -2192.73 86.7338 93.9965
5426.68 -2233.78 -2230.63 89.1623 79.1027
5429.56 -2298.51 -2255.52 61.412 85.5102
5432.45 -2234.26 -2225.05 105.956 68.0099
5435.33 -2142.38 -2218.11 36.6615 85.8097
5438.22 -2277.68 -2595.78 114.811 75.3163
5441.1 -3367.28 -2632.84 74.476 56.4526
5443.98 -2253.58 -2599.87 -19.9294 22.4683
5446.87 -2178.75 -2253.62 12.8584 15.1857
5449.75 -2328.54 -2251.9 52.6281 15.262
5452.63 -2248.39 -2591.75 -19.7004 71.8019
5455.52 -3198.32 -2548.26 182.478 68.0322
5458.4 -2198.06 -2591.41 41.3191 101.241
5461.28 -2377.83 -2271.28 79.9245 38.0254
5464.17 -2237.96 -2272.14 -7.16727 74.0231
5467.05 -2200.62 -2278.01 149.312 75.0758
5469.93 -2395.45 -2299.81 83.0828 108.827
5472.82 -2303.37 -2331.66 94.0876 95.715
5475.7 -2296.15 -2248.52 109.975 110.393
5478.58 -2146.05 -2240.07 127.116 119.22
5481.46 -2278.01 -2581.75 120.569 112.094
5484.35 -3321.19 -2631.03 88.598 84.0678
5487.23 -2293.9 -2660.26 43.0369 52.86
5490.11 -2365.69 -2305.51 26.9451 49.2279
5492.99 -2256.94 -2317.19 77.7017 50.9255
5495.87 -2328.95 -2319.91 48.1297 92.676
5498.76 -2373.83 -2346.78 152.196 114.904
5501.64 -2337.55 -2684.52 144.385 109.505
5504.52 -3342.18 -2634.36 31.9341 58.2467
5507.4 -2223.36 -2620.38 -1.57889 28.8802
5510.28 -2295.59 -2259.94 56.2854 60.6046
5513.17 -2260.87 -2656.7 127.107 103.336
5516.05 -3413.64 -2661.84 126.615 103.267
5518.93 -2311.02 -2706.41 56.0788 82.8582
5521.81 -2394.58 -2365.75 65.8808 83.8495
5524.69 -2391.66 -2354.03 129.589 103.528
5527.57 -2275.84 -2336.3 115.114 103.562
5530.45 -2341.4 -2333.05 65.9836 104.723
5533.33 -2381.91 -2349.66 133.072 102.378
5536.21 -2325.68 -2349.22 108.078 112.794
5539.09 -2340.06 -2337.91 97.2313 95.5776
5541.97 -2347.98 -2327.15 81.4233 110.78
5544.85 -2293.42 -2320.16 153.685 98.0895
5547.73 -2319.07 -2302.22 59.1604 87.2603
5550.61 -2294.17 -2312.91 48.9356 63.9542
5553.49 -2325.51 -2327.57 83.7665 73.6023
5556.37 -2363.03 -2676.68 88.1047 79.1206
5559.25 -3341.49 -3001.54 65.4906 99.9127
5562.13 -3300.11 -2994.02 146.143 84.8086
5565.01 -2340.47 -2642.77 42.7926 96.7604
5567.89 -2287.73 -2293.63 101.346 146.646
5570.77 -2252.69 -2662.43 295.8 351.923
5573.65 -3446.88 -3088.06 658.624 676.025
5576.53 -3564.61 -3086.61 1073.65 833.011
5579.41 -2248.34 -2693.01 766.757 614.227
5582.29 -2266.07 -2634.21 2.27154 142.523
5585.17 -3388.22 -2604.44 -341.46 -277.904
5588.05 -2159.03 -2595.46 -494.522 -425.668
5590.93 -2239.13 -2179.24 -441.022 -384.473
5593.8 -2139.56 -2535.6 -217.877 -277.623
5596.68 -3228.11 -2530.19 -173.972 -183.259
5599.56 -2222.89 -2565.8 -157.927 -154.064
5602.44 -2246.39 -2205.91 -130.293 -107.256
5605.32 -2148.44 -2243.11 -33.548 -61.8678
5608.2 -2334.51 -2271.71 -21.7618 7.54806
5611.07 -2332.19 -2321.55 77.954 36.2262
5613.95 -2297.95 -2291.17 52.4863 73.97
5616.83 -2243.36 -2267.89 91.4697 52.3329
5619.71 -2262.36 -2268.61 13.0428 66.7944
5622.58 -2300.11 -2287.47 95.8707 76.1775
5625.46 -2299.94 -2323.36 119.619 108.165
5628.34 -2370.02 -2355.08 109.005 148.629
5631.22 -2395.29 -2700.1 217.262 150.284
5634.09 -3335 -2986.89 124.585 167.916
5636.97 -3230.38 -2953.11 161.9 158.34
5639.85 -2293.96 -2627.35 188.535 144.566
5642.72 -2357.72 -2330.73 83.2625 151.139
5645.6 -2340.52 -2398.66 181.62 149.207
5648.48 -2497.75 -2393.9 182.737 163.652
5651.35 -2343.43 -2375.07 126.599 138.586
5654.23 -2284.03 -2307.03 106.423 159.157
5657.11 -2293.64 -2245.59 244.448 206.968
5659.98 -2159.11 -2220.96 270.032 238.923
5662.86 -2210.12 -2221.21 202.289 199.678
5665.73 -2294.41 -2559.14 126.712 166.032
5668.61 -3172.88 -2591.62 169.095 157.254
5671.49 -2307.57 -2923.04 175.956 180.286
5674.36 -3288.66 -2645.67 195.809 170.84
5677.24 -2340.77 -2646.8 140.755 171.089
5680.11 -2310.97 -2328.81 176.703 146.146
5682.99 -2334.69 -2339.16 120.979 164.715
5685.86 -2371.83 -2321 196.461 163.45
5688.74 -2256.47 -2290.95 172.91 159.134
5691.61 -2244.56 -2271.35 108.032 131.54
5694.49 -2313.01 -2612.94 113.678 140.845
5697.36 -3281.26 -2945.55 200.824 149.749
5700.24 -3242.37 -2947.89 134.744 163.768
5703.11 -2320.04 -2922.98 155.736 143.367
5705.99 -3206.51 -2547.83 139.622 134.051
5708.86 -2116.95 -2489.86 106.796 123.446
5711.74 -2146.12 -2155.47 123.922 137.316
5714.61 -2203.32 -2183.07 181.23 160.911
5717.48 -2199.76 -2236.22 177.582 197.662
5720.36 -2305.58 -2586.7 234.173 210.632
5723.23 -3254.76 -2632.6 220.142 200.759
5726.1 -2337.46 -2610.24 147.963 197.835
5728.98 -2238.5 -2287.55 225.401 172.967
5731.85 -2286.68 -2260.62 145.536 171.563
5734.73 -2256.69 -2307.46 143.752 131.542
5737.6 -2379.02 -2302.64 105.338 155.922
5740.47 -2272.2 -2306.7 218.678 185.51
5743.34 -2268.88 -2290.05 232.516 185.938
5746.22 -2329.08 -2312.29 106.621 169.102
5749.09 -2338.92 -2312.29 168.169 159.991
5751.96 -2268.86 -2311.61 205.182 198.184
5754.84 -2327.04 -2285.95 221.2 201.961
5757.71 -2261.96 -2273.38 179.501 178.603
5760.58 -2231.14 -2222.2 135.108 153.035
5763.45 -2173.51 -2200.73 144.495 166.036
5766.32 -2197.52 -2206.42 218.504 205.666
5769.2 -2248.21 -2237.51 253.999 238.801
5772.07 -2266.81 -2246.22 243.899 211.086
5774.94 -2223.64 -2241.97 135.361 175.928
5777.81 -2235.47 -2233.55 148.524 147.119
5780.68 -2241.55 -2215.38 157.472 183.387
5783.56 -2169.12 -2208.19 244.165 201.186
5786.43 -2213.91 -2216.36 201.921 224.183
5789.3 -2266.06 -2529.54 226.464 218.081
5792.17 -3108.65 -2524.97 225.859 203.769
5795.04 -2200.21 -2524.41 158.985 199.128
5797.91 -2264.37 -2247.09 212.54 201.587
5800.78 -2276.7 -2599.19 233.236 208.785
5803.65 -3256.52 -2570.54 180.58 200.043
5806.52 -2178.42 -2847.46 186.314 180.286
5809.39 -3107.43 -2507.27 173.965 191.312
5812.26 -2235.95 -2544.28 213.656 193.244
5815.13 -2289.46 -2605.75 192.111 188.866
5818 -3291.84 -2623.57 160.83 168.855
5820.87 -2289.4 -2601.55 153.624 184.894
5823.74 -2223.41 -2275.04 240.229 202.979
5826.61 -2312.32 -2578.58 215.085 203.64
5829.48 -3200 -2601.54 155.605 212.079
5832.35 -2292.3 -2590.97 265.547 202.384
5835.22 -2280.61 -2603.44 186 190.632
5838.09 -3237.41 -2574.64 120.35 159.227
5840.96 -2205.88 -2585.53 171.331 181.361
5843.83 -2313.31 -2601.99 252.402 201.811
5846.7 -3286.79 -2629 181.7 212.378
5849.57 -2286.92 -2624.16 203.032 208.791
5852.44 -2298.78 -2249.53 241.642 215.299
5855.3 -2162.89 -2187.87 201.223 226.137
5858.17 -2101.95 -2365.29 235.544 221.062
5861.04 -2831.01 -2545.18 226.42 249.236
5863.91 -2702.57 -2779.29 285.744 252.642
5866.78 -2804.28 -2790.08 245.76 264.97
5869.65 -2863.4 -2795.14 263.405 247.252
5872.51 -2717.73 -2782.38 232.591 225.346
5875.38 -2766.01 -2756.62 180.043 205.193
5878.25 -2786.13 -2784.21 202.944 209.347
5881.12 -2800.48 -2767.17 245.054 282.436
5883.98 -2714.9 -2703.45 399.31 397.26
5886.85 -2594.97 -2592.61 547.417 567.624
5889.72 -2467.97 -2521.65 756.145 652.606
5892.59 -2502 -2464.32 654.256 639.379
5895.45 -2422.97 -2447.03 507.735 479.473
5898.32 -2416.11 -2494.84 276.427 263.545
5901.19 -2645.43 -2524.31 6.47265 84.5661
5904.05 -2511.4 -2624.73 -29.201 -42.1193
5906.92 -2717.35 -2658.44 -103.63 -70.0567
5909.79 -2746.58 -2729.68 -77.3393 -82.7682
5912.65 -2725.09 -2734.44 -67.3356 -43.1829
5915.52 -2731.63 -2720.61 15.1264 -28.9016
5918.38 -2705.12 -2708.25 -34.4955 23.3256
5921.25 -2688 -2711.98 89.3458 62.0117
5924.12 -2742.82 -2751.56 131.185 143.16
5926.98 -2823.85 -2781.7 208.949 200.436
5929.85 -2778.43 -2769.24 261.175 256.131
5932.71 -2705.43 -2770.74 298.269 265.297
5935.58 -2828.35 -2774.52 236.445 221.065
5938.44 -2789.79 -2776.91 128.48 169.438
5941.31 -2712.57 -2737.97 143.387 179.365
5944.17 -2711.56 -2695.05 266.227 214.042
5947.04 -2661 -2697.49 232.512 235.117
5949.9 -2719.91 -2716.3 206.613 220.325
5952.77 -2768 -2750.91 221.85 236.419
5955.63 -2764.83 -2778.41 280.795 227.358
5958.5 -2802.4 -2756.73 179.428 213.311
5961.36 -2702.96 -2744.11 179.71 164.294
5964.22 -2726.98 -2709.14 133.746 180.311
5967.09 -2697.48 -2720.78 227.477 193.776
5969.95 -2737.88 -2727.38 220.105 263.385
5972.82 -2746.78 -2735.16 342.574 276.038
5975.68 -2720.82 -2714.82 265.434 269.832
5978.54 -2676.86 -2728.32 201.487 209.927
5981.41 -2787.29 -2719.8 162.859 168.825
5984.27 -2695.25 -2703.67 142.129 184.158
5987.13 -2628.46 -2665.21 247.486 202.984
5990 -2671.92 -2667.55 219.336 244.107
5992.86 -2702.27 -2671.3 265.499 225.852
5995.72 -2639.71 -2672.16 192.722 213.621
5998.58 -2674.49 -2676.66 182.642 192.812
6001.45 -2715.77 -2689.44 203.072 214.124
6004.31 -2678.07 -2685.12 256.658 209.976
6007.17 -2661.52 -2643.1 170.198 219.975
6010.03 -2589.7 -2646.63 233.071 201.47
6012.89 -2688.66 -2647.75 201.142 207.8
6015.76 -2664.88 -2640.83 189.187 217.805
6018.62 -2568.97 -2608.98 263.086 218.297
6021.48 -2593.1 -2561.9 202.618 242.75
6024.34 -2523.65 -2544.71 262.546 231.337
6027.2 -2517.4 -2570.76 228.848 240.595
6030.06 -2671.23 -2579 230.392 252.542
6032.93 -2548.37 -2656.86 298.386 260.037
6035.79 -2750.99 -2672.89 251.332 263.082
6038.65 -2719.31 -2705.66 239.527 241.137
6041.51 -2646.69 -2707.48 232.552 223.198
6044.37 -2756.44 -2698.7 197.515 225.421
6047.23 -2692.98 -2728.03 246.196 223.923
6050.09 -2734.68 -2712.8 228.06 242.876
6052.95 -2710.76 -2650.75 254.371 219.098
6055.81 -2506.82 -2596.62 174.863 227.773
6058.67 -2572.27 -2592.97 254.086 236.667
6061.53 -2699.83 -2633.76 281.053 261.647
6064.39 -2629.19 -2635.57 249.804 260.219
6067.25 -2577.69 -2629.35 249.8 259.829
6070.11 -2681.16 -2642.09 279.885 234.667
6072.97 -2667.42 -2682.93 174.316 241.555
6075.83 -2700.19 -2734.73 270.466 215.264
6078.69 -2836.58 -2596.41 201.011 238.81
6081.55 -2252.47 -2569.85 244.954 262.199
6084.4 -2620.51 -2520.41 340.632 284.076
6087.26 -2688.25 -2637.38 266.642 292.444
6090.12 -2603.36 -2629.48 270.057 275.296
6092.98 -2596.82 -2603.78 289.188 291.695
6095.84 -2611.17 -2604.06 315.839 289.985
6098.7 -2604.18 -2610.83 264.928 305.648
6101.55 -2617.14 -2570.15 336.176 289.643
6104.41 -2489.12 -2575.08 267.826 309.653
6107.27 -2618.98 -2552.41 324.958 309.161
6110.13 -2549.12 -2601.56 334.7 310.427
6112.99 -2636.6 -2597.89 271.624 281.033
6115.84 -2607.95 -2613.15 236.776 276.062
6118.7 -2594.91 -2602.49 319.787 313.134
6121.56 -2604.61 -2595.92 382.841 337.157
6124.42 -2588.22 -2566.44 308.843 305.223
6127.27 -2506.49 -2538.27 223.986 253.714
6130.13 -2520.09 -2508.43 228.311 239.577
6132.99 -2498.7 -2503.84 266.432 251.857
6135.84 -2492.74 -2520.28 260.828 308.354
6138.7 -2569.41 -2530.35 397.803 335.123
6141.55 -2528.9 -2533.62 346.738 360.518
6144.41 -2502.53 -2529.12 337.012 341.123
6147.27 -2555.92 -2531.75 339.619 341.835
6150.12 -2536.81 -2542.38 348.873 310.393
6152.98 -2534.4 -2543.69 242.687 313.407
6155.83 -2559.87 -2518.62 348.661 263.316
6158.69 -2461.58 -2469.65 198.6 260.14
6161.55 -2387.5 -2413.33 233.16 269.283
6164.4 -2390.91 -2395.08 376.089 312.6
6167.26 -2406.84 -2385.59 328.551 364.305
6170.11 -2359.02 -2368.69 388.276 345.729
6172.97 -2340.22 -2385.79 320.359 358.48
6175.82 -2458.14 -2431.61 366.804 336.324
6178.67 -2496.46 -2494.9 321.809 318.771
6181.53 -2530.08 -2486.11 267.7 296.522
6184.38 -2431.79 -2471.06 300.058 286.49
6187.24 -2451.32 -2453.72 291.71 277.167
6190.09 -2478.04 -2451.18 239.733 246.727
6192.95 -2424.19 -2453.8 208.738 263.048
6195.8 -2459.17 -2442.72 340.673 288.049
6198.65 -2444.8 -2486.98 314.737 329.27
6201.51 -2556.98 -2488.53 332.4 324.853
6204.36 -2463.8 -2540.15 327.42 341.909
6207.21 -2599.69 -2517.14 365.906 319.743
6210.07 -2487.94 -2494.6 265.904 340.839
6212.92 -2396.17 -2454.18 390.706 331.076
6215.77 -2478.43 -2453.22 336.618 326.143
6218.63 -2485.05 -2459.21 251.104 318.658
6221.48 -2414.15 -2460.69 368.253 298.777
6224.33 -2482.85 -2426.5 276.975 331.791
6227.18 -2382.51 -2420.7 350.146 333.731
6230.03 -2396.73 -2360.64 374.072 395.938
6232.89 -2302.68 -2382.64 463.595 449.761
6235.74 -2448.51 -2388.64 511.616 474.433
6238.59 -2414.73 -2447.42 448.087 445.306
6241.44 -2479.03 -2436.3 376.216 378.491
6244.29 -2415.13 -2431.03 311.17 313.717
6247.15 -2398.93 -2390.25 253.764 268.27
6250 -2356.69 -2360.23 239.876 257.879
6252.85 -2325.08 -2303.1 279.996 276.341
6255.7 -2227.52 -2299.48 309.151 280.576
6258.55 -2345.84 -2303.18 252.58 307.48
6261.4 -2336.19 -2359.5 360.709 318.187
6264.25 -2396.48 -2359.62 341.271 326.19
6267.1 -2346.18 -2352.07 276.591 315.024
6269.95 -2313.56 -2358.23 327.211 313.523
6272.8 -2414.96 -2338.9 336.767 308.16
6275.65 -2288.2 -2345.38 260.502 273.401
6278.5 -2332.97 -2310.35 222.934 261.46
6281.35 -2309.88 -2316.12 300.943 299.022
6284.2 -2305.5 -2336.45 373.187 352.932
6287.05 -2393.97 -2343.75 384.667 355.448
6289.9 -2331.77 -2356.84 308.49 509.509
6292.75 -2344.79 -2314.2 835.37 872.043
6295.6 -2266.03 -2274.72 1472.27 1522.32
6298.45 -2213.34 -2178.46 2259.33 1882.36
6301.3 -2056 -2190.98 1915.49 1687.35
6304.14 -2303.59 -2198.75 887.232 910.097
6306.99 -2236.67 -2253.11 -72.4261 112.764
6309.84 -2219.08 -2229.29 -476.514 -448.785
6312.69 -2232.13 -2264.98 -797.414 -718.695
6315.54 -2343.73 -2283.91 -882.158 -787.315
6318.39 -2275.87 -2291.59 -682.372 -628.203
6321.23 -2255.17 -2271.99 -320.08 -378.531
6324.08 -2284.92 -2311.57 -133.141 -106.872
6326.93 -2394.61 -2342.84 132.605 63.9959
6329.78 -2348.99 -2346.85 192.524 178.517
6332.62 -2296.95 -2367.71 210.422 201.847
6335.47 -2457.19 -2369.08 202.595 224.86
6338.32 -2353.1 -2401.79 261.562 309.31
6341.16 -2395.07 -2364.07 463.772 346.028
6344.01 -2344.06 -2345.86 312.748 387.058
6346.86 -2298.44 -2324.69 384.653 364.312
6349.7 -2331.56 -2328.55 395.533 438.481
6352.55 -2355.64 -2353.7 535.257 458.798
6355.4 -2373.9 -2332.76 445.603 591.466
6358.24 -2268.74 -2286.25 793.538 716.065
6361.09 -2216.12 -2236.12 909.053 867.011
6363.93 -2223.5 -2252.72 898.443 756.35
6366.78 -2318.54 -2295.23 461.553 535.138
6369.63 -2343.66 -2315.45 245.417 270.832
6372.47 -2284.15 -2326.66 105.526 159.004
6375.32 -2352.16 -2323.17 126.068 122.647
6378.16 -2333.19 -2357.88 136.348 133.093
6381.01 -2388.28 -2343.7 136.864 136.121
6383.85 -2309.62 -2342.71 135.153 185.696
6386.69 -2330.23 -2326.5 285.073 252.007
6389.54 -2339.66 -2316.77 335.797 320.747
6392.38 -2280.41 -2300.05 341.373 343.371
6395.23 -2280.06 -2296.14 352.942 369.737
6398.07 -2327.93 -2298.81 414.898 425.671
6400.92 -2288.43 -2310.63 509.175 464.831
6403.76 -2315.54 -2289.08 470.421 457.171
6406.6 -2263.26 -2267.45 391.917 410.896
6409.45 -2223.53 -2229.12 370.349 384.171
6412.29 -2200.57 -2220.14 390.247 398.131
6415.13 -2236.32 -2234.92 433.797 399.753
6417.98 -2267.87 -2244.75 375.214 401.131
6420.82 -2230.06 -2252.9 394.38 431.312
6423.66 -2260.77 -2244.59 524.341 441.486
6426.5 -2242.94 -2267.27 405.737 445.128
6429.35 -2298.1 -2264.11 405.307 427.199
6432.19 -2251.31 -2242.44 470.554 445.589
6435.03 -2177.91 -2241.76 460.905 484.788
6437.87 -2296.06 -2221.12 522.905 487.97
6440.72 -2189.4 -2254.52 480.101 500.88
6443.56 -2278.11 -2246.05 499.635 514.839
6446.4 -2270.64 -2295.7 564.782 500.43
6449.24 -2338.34 -2252.63 436.873 478.518
6452.08 -2148.92 -2235.33 433.901 455.673
6454.92 -2218.73 -2174.84 496.245 492.49
6457.76 -2156.88 -2162.8 547.322 503.995
6460.6 -2112.79 -2143.6 468.418 553.277
6463.44 -2161.15 -2148.68 644.091 580.13
6466.29 -2172.12 -2191.28 627.881 621.833
6469.13 -2240.57 -2199.7 593.526 565.653
6471.97 -2186.4 -2210.07 475.552 509.8
6474.81 -2203.24 -2219.18 460.321 449.303
6477.65 -2267.89 -2231.05 412.036 428.74
6480.49 -2222.01 -2240.27 413.863 404.785
6483.33 -2230.91 -2236.32 388.455 401.606
6486.17 -2256.05 -2246.88 402.5 413.445
6489 -2253.68 -2241.7 449.38 446.53
6491.84 -2215.38 -2178.52 487.71 552.871
6494.68 -2066.48 -2117.08 721.522 623.265
6497.52 -2069.37 -2087.01 660.564 700.595
6500.36 -2125.19 -2115.29 719.7 654.421
6503.2 -2151.31 -2143.66 582.998 618.295
6506.04 -2154.49 -2163 552.188 529.332
6508.88 -2183.19 -2181.87 452.811 430.81
6511.71 -2207.93 -2232.36 287.432 356.979
6514.55 -2305.97 -2233.92 330.695 366.839
6517.39 -2187.88 -2234.4 482.392 455.915
6520.23 -2209.34 -2209.45 554.658 533.401
6523.07 -2231.12 -2211.89 563.154 557.723
6525.9 -2195.21 -2197.74 555.356 604.686
6528.74 -2166.89 -2222.31 695.547 609.348
6531.58 -2304.82 -2219.62 577.141 619.04
6534.41 -2187.14 -2206.72 584.431 578.64
6537.25 -2128.19 -2162.75 574.348 569.774
6540.09 -2172.91 -2170.58 550.542 564.285
6542.92 -2210.62 -2222.84 567.966 574.557
6545.76 -2284.98 -2192.24 605.164 586.966
6548.6 -2081.13 -2140.39 587.768 598.452
6551.43 -2055.06 -2020.41 602.425 608.911
6554.27 -1925.04 -1909.28 636.541 596.567
6557.11 -1747.75 -1714.1 550.736 551.992
6559.94 -1469.51 -1476.42 468.698 509.032
6562.78 -1212 -1337.41 507.663 480.678
6565.61 -1330.73 -1346.35 465.674 471.981
6568.45 -1496.33 -1519.82 442.606 498.373
6571.28 -1732.41 -1645.21 586.839 525.238
6574.12 -1706.87 -1799.54 546.27 582.422
6576.95 -1959.33 -1891.4 614.156 569.324
6579.79 -2007.99 -2014.08 547.546 541.508
6582.62 -2074.91 -2070.88 462.821 512.613
6585.46 -2129.75 -2102.17 527.47 520.235
6588.29 -2101.84 -2097.04 570.414 545.055
6591.12 -2059.54 -2138.54 537.28 573.947
6593.96 -2254.23 -2148.73 614.148 635.343
6596.79 -2132.41 -2179.22 754.6 674.239
6599.62 -2151.01 -2134.09 653.969 669.499
6602.46 -2118.85 -2133.88 599.927 626.715
6605.29 -2131.79 -2135.08 626.249 634.61
6608.12 -2154.61 -2146.47 677.653 621.196
6610.96 -2153.03 -2143.26 559.685 626.43
6613.79 -2122.14 -2131.96 641.952 599.744
6616.62 -2120.72 -2148.53 597.596 598.021
6619.45 -2202.72 -2147.7 554.517 617.634
6622.29 -2119.67 -2147.48 700.79 641.513
6625.12 -2120.06 -2145.68 669.232 710.701
6627.95 -2197.31 -2147.92 762.081 726.174
6630.78 -2126.39 -2130.86 747.208 757.047
6633.61 -2068.86 -2078.79 761.852 747.068
6636.45 -2041.11 -2066.39 732.143 720.814
6639.28 -2089.2 -2071.11 668.448 665.994
6642.11 -2083.02 -2082.02 597.39 645.277
6644.94 -2073.84 -2096.28 669.994 636.537
6647.77 -2131.97 -2111.33 642.228 692.284
6650.6 -2128.18 -2142.78 764.631 713.643
6653.43 -2168.17 -2124.62 734.071 753.851
6656.26 -2077.49 -2112.28 762.85 763.162
6659.09 -2091.19 -2082.34 792.565 770.169
6661.92 -2078.34 -2073.52 755.092 747.255
6664.75 -2051.02 -2053.45 694.107 764.871
6667.58 -2030.98 -2034.54 845.413 786.202
6670.41 -2021.62 -2032.76 819.084 860.413
6673.24 -2045.69 -2043.71 916.741 870.036
6676.07 -2063.83 -2043.77 874.284 896.12
6678.9 -2021.79 -2059.76 897.336 897.517
6681.73 -2093.67 -2065.86 920.933 877.55
6684.56 -2082.13 -2047.74 814.381 825.909
6687.39 -1967.43 -2038.94 742.414 790.476
6690.22 -2067.28 -2009.11 814.632 808.938
6693.04 -1992.63 -2038.1 869.768 817.383
6695.87 -2054.4 -2159.21 767.749 827.603
6698.7 -2430.6 -2333.42 845.292 809.458
6701.53 -2515.26 -2471.69 815.334 829.176
6704.36 -2469.22 -2497.5 826.902 843.056
6707.18 -2508.03 -2473.98 886.932 879.087
6710.01 -2444.68 -2472.96 923.426 887.426
6712.84 -2466.16 -2424.66 851.921 879.14
6715.67 -2363.15 -2404.96 862.072 885.793
6718.49 -2385.56 -2384.31 943.385 855.923
6721.32 -2404.23 -2390.42 762.312 850.894
6724.15 -2381.48 -2424.51 846.987 797.089
6726.97 -2487.82 -2436.08 781.97 817.633
6729.8 -2438.95 -2467.41 823.941 832.548
6732.62 -2475.46 -2448.95 891.734 872.59
6735.45 -2432.45 -2455.97 902.095 897.921
6738.28 -2460 -2411.99 899.936 908.683
6741.1 -2343.52 -2398.54 924.019 906.637
6743.93 -2392.1 -2368.76 895.955 904.516
6746.75 -2370.68 -2375.73 893.575 920.551
6749.58 -2364.43 -2346.46 972.124 921.136
6752.4 -2304.28 -2329.69 897.708 942.625
6755.23 -2320.36 -2305.71 958.044 915.136
6758.05 -2292.48 -2339.98 889.655 940.566
6760.88 -2407.1 -2365.54 973.997 929.299
6763.7 -2397.04 -2394.91 924.244 929.2
6766.53 -2380.58 -2357.37 889.358 915.256
6769.35 -2294.5 -2334.76 932.166 961.164
6772.17 -2329.2 -2329.88 1061.97 1010.25
6775 -2365.93 -2383.53 1036.63 1034.07
6777.82 -2455.47 -2391.33 1003.61 993.105
6780.64 -2352.59 -2389 939.083 947.869
6783.47 -2358.95 -2363.22 900.919 944.075
6786.29 -2378.13 -2376.82 992.223 991.954
6789.11 -2393.39 -2394.74 1082.72 1018.32
6791.94 -2412.7 -2385.11 980.007 1022.55
6794.76 -2349.24 -2349.19 1004.92 992.536
6797.58 -2285.64 -2327.39 992.679 1011.82
6800.4 -2347.31 -2360 1037.87 1015.7
6803.23 -2447.06 -2378.25 1016.55 1019.89
6806.05 -2340.38 -2402.04 1005.27 1048.24
6808.87 -2418.66 -2342.07 1122.9 1059.57
6811.69 -2267.17 -2330.72 1050.55 1067.5
6814.51 -2306.33 -2301.74 1029.06 1035.73
6817.33 -2331.72 -2346.55 1027.57 1028.23
6820.16 -2401.6 -2333.78 1028.07 1055.92
6822.98 -2268.01 -2320.79 1112.12 1098.03
6825.8 -2292.77 -2288.57 1153.89 1195.26
6828.62 -2304.93 -2314.43 1319.77 1230.92
6831.44 -2345.59 -2302.9 1219.09 1163.6
6834.26 -2258.17 -2283.53 951.933 1019.28
6837.08 -2246.83 -2246 886.816 967.461
6839.9 -2232.99 -2250.9 1063.63 926.481
6842.72 -2272.87 -2226.09 828.994 962.221
6845.54 -2172.4 -2244.05 994.035 942.021
6848.36 -2286.89 -2243.91 1003.03 1007.67
6851.18 -2272.45 -2268.04 1025.95 1035.85
6854 -2244.8 -2297.26 1078.55 1116.06
6856.82 -2374.55 -2290.62 1243.68 1225.65
6859.63 -2252.51 -2276.15 1354.72 1284.68
6862.45 -2201.4 -2173.12 1255.63 1197.07
6865.27 -2065.45 -2006.64 980.862 981.215
6868.09 -1753.06 -1854.2 707.159 811.522
6870.91 -1744.1 -1747.87 746.547 778.402
6873.73 -1746.44 -1750.58 881.5 857.018
6876.54 -1761.2 -1798.77 943.009 946.86
6879.36 -1888.66 -1833.25 1016.07 982.022
6882.18 -1849.88 -1880.38 986.987 1022.64
6885 -1902.6 -1870.88 1064.85 1028.7
6887.81 -1860.17 -1881.66 1034.27 1042.19
6890.63 -1882.22 -1877.12 1027.45 1015.16
6893.45 -1888.96 -1860.59 983.758 1050.14
6896.26 -1810.57 -1875.09 1139.2 1096.43
6899.08 -1925.75 -1899.05 1166.34 1147.19
6901.9 -1960.84 -1971.97 1136.02 1137.45
6904.71 -2029.33 -2005.55 1109.99 1153
6907.53 -2026.47 -1999.23 1212.98 1151.9
6910.34 -1941.9 -1974.94 1132.74 1138.73
6913.16 -1956.44 -1985.03 1070.48 1132.53
6915.98 -2056.74 -2001.62 1194.37 1180.94
6918.79 -1991.67 -2050.99 1277.97 1267.41
6921.61 -2104.55 -2048.37 1329.89 1239.83
6924.42 -2048.87 -2081.49 1111.63 1226.49
6927.24 -2091.04 -2085.13 1237.95 1233.05
6930.05 -2115.48 -2095.56 1349.58 1294.88
6932.86 -2080.17 -2101.36 1297.11 1352.89
6935.68 -2108.42 -2076.1 1411.98 1353.94
6938.49 -2039.71 -2081.59 1352.74 1404.69
6941.31 -2096.65 -2104.9 1449.34 1398.82
6944.12 -2178.33 -2128.59 1394.38 1368.71
6946.93 -2110.8 -2126.89 1262.42 1341.41
6949.75 -2091.53 -2131.25 1367.41 1323.06
6952.56 -2191.41 -2115.28 1339.33 1395.53
6955.37 -2062.9 -2088.59 1479.86 1424.51
6958.19 -2011.47 -2073.37 1454.35 1422.05
6961 -2145.73 -2105.5 1331.93 1372.48
6963.81 -2159.3 -2117.32 1331.16 1309.83
6966.62 -2046.91 -2090.43 1266.42 1268.46
6969.44 -2065.07 -2101.48 1207.79 1240.34
6972.25 -2192.46 -2115.76 1246.81 1216.73
6975.06 -2089.74 -2106.47 1195.59 1258.42
6977.87 -2037.21 -2075.22 1332.85 1240.35
6980.68 -2098.71 -2078.98 1192.6 1228.9
6983.5 -2101.03 -2105.14 1161.26 1220.36
6986.31 -2115.69 -2117.27 1307.23 1268.62
6989.12 -2135.1 -2126.28 1337.39 1320.61
6991.93 -2128.07 -2089.67 1317.2 1361.76
6994.74 -2005.85 -2077.61 1430.68 1346.97
6997.55 -2098.91 -2042.43 1293.04 1356.43
7000.36 -2022.54 -2022.12 1345.58 1315.5
7003.17 -1944.89 -1993.73 1307.88 1333.16
7005.98 -2013.75 -1980.62 1346.02 1365.2
7008.79 -1983.22 -2000.32 1441.7 1365.15
7011.6 -2003.98 -2022.04 1307.72 1375.54
7014.41 -2078.91 -2008.61 1377.19 1347.47
7017.22 -1942.92 -2021.34 1357.49 1414.69
7020.03 -2042.2 -1965.71 1509.37 1422.92
7022.84 -1912.01 -1982.06 1401.9 1423.3
7025.64 -1991.97 -1949.69 1358.63 1404.88
7028.45 -1945.09 -1973.53 1454.12 1394.56
7031.26 -1983.53 -1975.6 1370.94 1460.34
7034.07 -1998.18 -1981.25 1555.98 1453.69
7036.88 -1962.04 -1987.25 1434.15 1503.55
7039.69 -2001.54 -2010.92 1520.54 1477.23
7042.49 -2069.19 -2011.14 1477.02 1467.47
7045.3 -1962.69 -1984.6 1404.84 1471.31
7048.11 -1921.91 -1931.07 1532.07 1484.1
7050.92 -1908.63 -1909.05 1515.39 1490.97
7053.72 -1896.6 -1930.81 1425.45 1454.58
7056.53 -1987.2 -1923.38 1422.89 1429.57
7059.34 -1886.33 -1966.09 1440.36 1497.52
7062.14 -2024.73 -1943.9 1629.3 1560.17
7064.95 -1920.64 -1969.39 1610.86 1655.3
7067.75 -1962.79 -1930.04 1725.74 1686.4
7070.56 -1906.7 -1930.24 1722.61 1746.15
7073.37 -1921.23 -1920.65 1790.11 1742.72
7076.17 -1934.02 -1934.26 1715.45 1770.52
7078.98 -1947.53 -1949.02 1805.99 1760.81
7081.78 -1965.52 -1955.4 1760.98 1775.59
7084.59 -1953.16 -1959.16 1759.8 1807.77
7087.39 -1958.79 -1931.4 1902.52 1837.82
7090.2 -1882.26 -1919.58 1851.13 1835.19
7093 -1917.7 -1893.29 1751.92 1790.07
7095.81 -1879.91 -1905.3 1767.17 1806.5
7098.61 -1918.3 -1907.53 1900.39 1823.47
7101.41 -1924.39 -1938.56 1802.85 1887.06
7104.22 -1972.98 -1929.28 1957.92 1884.9
7107.02 -1890.45 -1928.74 1893.94 1905.11
7109.82 -1922.79 -1896.43 1863.48 1912.33
7112.63 -1876.06 -1895.92 1979.57 1917.85
7115.43 -1888.9 -1871.78 1910.52 1976.36
7118.23 -1850.38 -1870.3 2039.01 1985.1
7121.04 -1871.61 -1855.51 2005.77 1959.05
7123.84 -1844.53 -1867.63 1832.37 1940.82
7126.64 -1886.75 -1854.51 1984.34 1877.64
7129.44 -1832.26 -1857.05 1816.22 1922.82
7132.24 -1852.15 -1819.3 1967.89 1923.06
7135.05 -1773.49 -1846.35 1985.06 2017.64
7137.85 -1913.4 -1820.89 2099.97 1991.55
7140.65 -1775.78 -1838.09 1889.61 2004.19
7143.45 -1825.1 -1783.38 2023 1948.53
7146.25 -1749.27 -1768.79 1932.97 1984.9
7149.05 -1732 -1776.47 1998.74 1988.81
7151.85 -1848.15 -1799.72 2034.72 2009.11
7154.65 -1818.99 -1837.97 1993.86 2016.99
7157.45 -1846.77 -1819.75 2022.39 2020.15
7160.25 -1793.48 -1796.89 2044.21 2050.84
7163.05 -1750.41 -1738.47 2085.93 2036.27
7165.85 -1671.53 -1734.31 1978.67 2016.26
7168.65 -1780.98 -1731.75 1984.17 1959.23
7171.45 -1742.73 -1760.38 1914.86 1932.43
7174.25 -1757.42 -1738.83 1898.27 1898.62
7177.05 -1716.35 -1730.36 1882.74 1925.22
7179.85 -1717.32 -1690.16 1994.66 1928.16
7182.65 -1636.81 -1630.17 1907.08 1890.52
7185.45 -1536.38 -1569.16 1769.83 1906.81
7188.25 -1534.3 -1552.2 2043.53 1901.9
7191.04 -1585.92 -1570.72 1892.34 2000.21
7193.84 -1591.96 -1593.54 2064.77 2002.35
7196.64 -1602.75 -1579.56 2049.94 2042.06
7199.44 -1543.98 -1582.6 2011.48 2053.33
7202.23 -1601.06 -1550.01 2098.58 2057.88
7205.03 -1504.98 -1561.33 2063.59 2105.37
7207.83 -1577.95 -1545.16 2153.95 2104.35
7210.63 -1552.54 -1583.85 2095.5 2156.72
7213.42 -1621.06 -1632.17 2220.7 2114.78
7216.22 -1722.92 -1659.88 2028.13 2118.18
7219.01 -1635.66 -1671.77 2105.7 2086.13
7221.81 -1656.74 -1641.48 2124.57 2129.97
7224.61 -1632.05 -1653.98 2159.65 2079.64
7227.4 -1673.16 -1647.88 1954.71 2013.27
7230.2 -1638.42 -1610.42 1925.45 1874.69
7232.99 -1519.69 -1592.08 1743.9 1840.11
7235.79 -1618.13 -1545.76 1850.98 1869.65
7238.58 -1499.46 -1604.95 2014.07 2072.12
7241.38 -1697.27 -1572.78 2351.31 2280.01
7244.17 -1521.6 -1618.7 2474.65 2443.95
7246.97 -1637.25 -1586.02 2505.9 2498.85
7249.76 -1599.2 -1623.9 2516.01 2477.44
7252.55 -1635.24 -1623.26 2410.4 2382.54
7255.35 -1635.34 -1627.72 2221.22 2368.37
7258.14 -1612.58 -1622.57 2473.49 2329.5
7260.94 -1619.79 -1597.69 2293.79 2363.31
7263.73 -1560.7 -1583.25 2322.66 2166.65
7266.52 -1569.26 -1558.73 1883.49 2047.33
7269.32 -1546.23 -1523.42 1935.85 1984.27
7272.11 -1454.77 -1484.85 2133.47 2157.89
7274.9 -1453.56 -1467.42 2404.34 2383.14
7277.69 -1493.93 -1517.5 2611.61 2570.26
7280.48 -1605.02 -1568 2694.84 2663.23
7283.28 -1605.05 -1575.51 2683.23 2686.47
7286.07 -1516.48 -1556.98 2681.35 2639.49
7288.86 -1549.42 -1517.03 2553.89 2583.14
7291.65 -1485.19 -1527.39 2514.17 2564.74
7294.44 -1547.55 -1503.69 2626.15 2568.99
7297.23 -1478.33 -1505.85 2566.64 2538.41
7300.02 -1491.68 -1500.78 2422.45 2502.24
7302.81 -1532.33 -1534.06 2517.63 2448.29
7305.61 -1578.17 -1556.2 2404.78 2365.32
7308.4 -1558.09 -1546.32 2173.55 2361.21
7311.19 -1502.7 -1510.98 2505.29 2462.13
7313.98 -1472.14 -1489.33 2707.56 2665.98
7316.77 -1493.15 -1497.74 2785.1 2783
7319.55 -1527.92 -1530.06 2856.35 2855.44
7322.34 -1569.11 -1532.58 2924.88 2866.42
7325.13 -1500.71 -1524.73 2818.02 2761.36
7327.92 -1504.37 -1539.41 2541.18 2590.64
7330.71 -1613.15 -1535.87 2412.72 2478.14
7333.5 -1490.1 -1555.73 2480.51 2503.47
7336.29 -1563.93 -1518.32 2617.18 2691.83
7339.08 -1500.93 -1540.58 2977.81 2937.89
7341.86 -1556.89 -1553.58 3218.68 3183.96
7344.65 -1602.91 -1586.72 3355.38 3148.65
7347.44 -1600.36 -1595.19 2871.88 3014.29
7350.23 -1582.28 -1573.81 2815.59 2857.18
7353.01 -1538.78 -1551.16 2884.08 2824.24
7355.8 -1532.41 -1550.77 2773.05 2883.67
7358.59 -1581.11 -1546.13 2993.89 2898.55
7361.37 -1524.87 -1526.57 2928.71 2908.01
7364.16 -1473.72 -1495.97 2801.41 2971.32
7366.95 -1489.33 -1478.11 3183.84 3077.27
7369.73 -1471.29 -1488.44 3246.56 3271.21
7372.52 -1504.7 -1502.14 3383.22 3299.97
7375.3 -1530.43 -1519.78 3270.13 3271.33
7378.09 -1524.2 -1520.07 3160.62 3150.27
7380.87 -1505.58 -1522.86 3020.05 3116.84
7383.66 -1538.8 -1514.76 3169.84 3062.8
7386.44 -1499.89 -1482.21 2998.52 3037.88
7389.23 -1407.93 -1435.25 2945.29 2973.55
7392.01 -1397.94 -1422.28 2976.85 2938.53
7394.8 -1460.99 -1436.32 2893.44 3002.74
7397.58 -1450.03 -1481.69 3137.94 3128.74
7400.36 -1534.06 -1474.48 3354.83 3268.32
7403.15 -1439.35 -1509.77 3312.19 3330.46
7405.93 -1555.89 -1496.03 3324.35 3269.13
7408.72 -1492.87 -1494.7 3170.86 3236.69
7411.5 -1435.34 -1453.33 3214.85 3190.49
7414.28 -1431.79 -1448.83 3185.76 3196.5
7417.06 -1479.35 -1448.22 3188.88 3239.26
7419.85 -1433.52 -1447.02 3343.13 3228.64
7422.63 -1428.19 -1444.31 3153.89 3280.93
7425.41 -1471.21 -1439.45 3345.77 3271.82
7428.19 -1418.94 -1430.22 3315.79 3380.43
7430.97 -1400.5 -1442.46 3479.72 3359.09
7433.76 -1507.93 -1438.37 3281.75 3371.29
7436.54 -1406.67 -1481.37 3352.4 3407.36
7439.32 -1529.5 -1450.3 3587.93 3502.78
7442.1 -1414.73 -1465.31 3568 3513.92
7444.88 -1451.68 -1406.41 3385.85 3457.52
7447.66 -1352.82 -1413.02 3418.73 3357.36
7450.44 -1434.56 -1411.15 3267.5 3333.8
7453.22 -1446.09 -1442.98 3315.18 3323.41
7456 -1448.29 -1452.39 3387.55 3346.67
7458.78 -1462.8 -1446.82 3337.28 3264.9
7461.56 -1429.36 -1429.35 3069.86 3260.29
7464.34 -1395.9 -1421.19 3373.73 3305.19
7467.12 -1438.29 -1410.06 3471.98 3448.43
7469.9 -1395.99 -1414.66 3499.58 3492.08
7472.68 -1409.7 -1405.52 3504.68 3551.63
7475.45 -1410.86 -1393.28 3650.62 3598.26
7478.23 -1359.27 -1392.69 3639.47 3743.45
7481.01 -1407.94 -1406.77 3940.26 3800.88
7483.79 -1453.11 -1442.78 3822.9 3866.96
7486.57 -1467.3 -1524.86 3837.72 3813.04
7489.34 -1654.16 -1603.46 3778.51 3782.26
7492.12 -1688.92 -1645.94 3730.56 3769.13
7494.9 -1594.73 -1611.36 3798.32 3713.18
7497.67 -1550.44 -1587.56 3610.65 3691.35
7500.45 -1617.5 -1584.6 3665.07 3655.1
7503.23 -1585.85 -1610.26 3689.58 3609.68
7506 -1627.41 -1604.69 3474.41 3571.26
7508.78 -1600.81 -1607.51 3549.8 3507.42
7511.56 -1594.3 -1589.52 3498.05 3521.24
7514.33 -1573.43 -1565.52 3515.88 3515.55
7517.11 -1528.82 -1582.84 3532.71 3699.88
7519.88 -1646.28 -1594.51 4051.06 3864.23
7522.66 -1608.42 -1606.09 4008.94 4059.64
7525.43 -1563.57 -1567.42 4118.92 4064.74
7528.21 -1530.29 -1541.09 4066.37 4116.8
7530.98 -1529.41 -1564.64 4165.1 4187.75
7533.76 -1634.22 -1596.76 4331.78 4143.98
7536.53 -1626.67 -1616.11 3935.07 4079.11
7539.3 -1587.44 -1604.47 3970.46 3932.48
7542.08 -1599.32 -1590.98 3891.89 3928.11
7544.85 -1586.18 -1582.89 3921.99 3899.9
7547.62 -1563.15 -1551.12 3885.84 3880.06
7550.4 -1504.02 -1549.82 3832.36 3873.16
7553.17 -1582.28 -1540.75 3901.29 3872.49
7555.94 -1535.96 -1560.79 3883.82 3897.27
7558.72 -1564.12 -1544.68 3906.69 3918.82
7561.49 -1533.95 -1547.05 3965.96 3879.95
7564.26 -1543.08 -1550.14 3767.2 3944.05
7567.03 -1573.4 -1542.66 4098.98 4040.44
7569.8 -1511.49 -1526.32 4255.13 4156.8
7572.57 -1494.06 -1498.6 4116.29 4173.76
7575.35 -1490.24 -1507.74 4149.85 4163.92
7578.12 -1538.91 -1499.06 4225.63 4147.55
7580.89 -1468.03 -1501.07 4067.16 4160.79
7583.66 -1496.26 -1450.6 4189.58 4041.56
7586.43 -1387.5 -1427.49 3867.92 3945.63
7589.2 -1398.7 -1353.52 3779.4 3656.47
7591.97 -1274.37 -1247.93 3322.08 3222.42
7594.74 -1070.71 -1046.42 2565.78 2555.58
7597.51 -794.17 -798.251 1778.87 1896.18
7600.28 -529.871 -572.721 1343.88 1394.62
7603.05 -394.121 -425.085 1061.11 1134.32
7605.81 -351.263 -368.935 997.965 1045.26
7608.58 -361.421 -382.856 1076.72 1166.53
7611.35 -435.884 -474.698 1424.89 1534.29
7614.12 -626.79 -622.592 2101.26 2053.25
7616.89 -805.102 -783.875 2633.61 2508.97
7619.66 -919.732 -879.703 2792.03 2609.05
7622.42 -914.274 -858.668 2401.5 2488.39
7625.19 -741.998 -804.073 2271.65 2247.53
7627.96 -755.946 -735.644 2069.45 2171.73
7630.73 -708.987 -718.947 2174.1 2089.3
7633.49 -691.909 -708.774 2024.35 2167.96
7636.26 -725.425 -729.073 2305.42 2207.43
7639.03 -769.885 -766.43 2292.52 2355.38
7641.79 -803.979 -799.444 2468.21 2463.1
7644.56 -824.469 -852.79 2628.58 2589.43
7647.32 -929.923 -895.859 2671.49 2733.64
7650.09 -933.184 -952.59 2900.83 2890.41
7652.85 -994.664 -991.304 3098.89 3109.16
7655.62 -1046.06 -1023.61 3327.76 3291.92
7658.38 -1030.09 -1054.73 3449.12 3423.24
7661.15 -1088.03 -1081.09 3492.83 3547.17
7663.91 -1125.14 -1107.47 3699.57 3648.88
7666.68 -1109.24 -1126.24 3754.24 3777.18
7669.44 -1144.33 -1139.46 3877.73 3909.76
7672.21 -1164.8 -1180.82 4097.31 3984.68
7674.97 -1233.33 -1231.64 3978.99 4049.03
7677.73 -1296.78 -1257.66 4070.79 3979.94
7680.5 -1242.87 -1288.12 3890.06 4126.49
7683.26 -1324.7 -1285.46 4418.64 4125.35
7686.02 -1288.81 -1316.22 4067.37 4262.99
7688.79 -1335.15 -1288.25 4302.96 4197.86
7691.55 -1240.79 -1295.86 4223.26 4212.95
7694.31 -1311.64 -1268.38 4112.63 4098.87
7697.07 -1252.71 -1282.68 3960.73 4026.65
7699.83 -1283.7 -1287.54 4006.6 3951.02
7702.59 -1326.21 -1310.42 3885.72 3903.99
7705.36 -1321.37 -1326.84 3819.65 3918.83
7708.12 -1332.95 -1312.75 4051.11 4110.8
7710.88 -1283.93 -1318.25 4461.63 4528.83
7713.64 -1337.86 -1315.46 5073.76 4896.73
7716.4 -1324.58 -1325.42 5154.8 5153.4
7719.16 -1313.82 -1313.53 5231.64 5030.9
7721.92 -1302.17 -1317.4 4706.25 4962.84
7724.68 -1336.21 -1321.06 4950.63 4762.77
7727.44 -1324.81 -1310.88 4631.44 4661.53
7730.2 -1271.63 -1319.23 4402.52 4496.89
7732.96 -1361.24 -1307.42 4456.71 4342.17
7735.72 -1289.39 -1310.2 4167.29 4232.12
7738.48 -1279.97 -1263.32 4072.36 4005.54
7741.23 -1220.6 -1231.95 3776.95 4013.13
7743.99 -1195.28 -1187.99 4190.08 4116.56
7746.75 -1148.09 -1210.14 4382.65 4424.43
7749.51 -1287.04 -1223.47 4700.57 4740.06
7752.27 -1235.26 -1275.11 5136.97 4973.11
7755.02 -1303.04 -1255.72 5081.79 4999.03
7757.78 -1228.85 -1251.59 4778.34 4904.61
7760.54 -1222.89 -1247.36 4853.69 4817
7763.29 -1290.35 -1237.56 4818.97 4776.27
7766.05 -1199.45 -1224.28 4656.14 4683.79
7768.81 -1183.05 -1192.1 4576.25 4599.02
7771.56 -1193.8 -1196.44 4564.68 4557.39
7774.32 -1212.46 -1183.03 4531.24 4454.1
7777.08 -1142.81 -1178.81 4266.4 4396.51
7779.83 -1181.16 -1184.06 4391.89 4335.06
7782.59 -1228.2 -1198.89 4346.9 4329.92
7785.34 -1187.32 -1203.86 4250.98 4279.56
7788.1 -1196.05 -1214.18 4240.8 4432.83
7790.85 -1259.17 -1224.21 4806.7 4673.35
7793.61 -1217.41 -1234.25 4972.55 4981.4
7796.36 -1226.18 -1211.91 5164.97 4939.7
7799.11 -1192.13 -1202.82 4681.58 4776.26
7801.87 -1190.15 -1191.86 4482.25 4578.03
7804.62 -1193.32 -1203.05 4570.25 4546.6
7807.37 -1225.68 -1216.3 4587.29 4505.04
7810.13 -1229.89 -1236.76 4357.57 4508.72
7812.88 -1254.71 -1222.47 4581.3 4455.7
7815.63 -1182.8 -1192.63 4428.23 4731.42
7818.39 -1140.38 -1167.86 5184.72 5031.65
7821.14 -1180.42 -1180.83 5481.99 5347.08
7823.89 -1221.69 -1202.24 5374.52 5336.81
7826.64 -1204.62 -1192.09 5153.92 5115.99
7829.39 -1149.95 -1173.81 4819.53 4852.97
7832.14 -1166.84 -1148.31 4585.47 4587.27
7834.9 -1128.13 -1160.99 4356.8 4440.38
7837.65 -1187.99 -1114.04 4378.88 4314.18
7840.4 -1026.01 -1124.01 4206.85 4271.8
7843.15 -1158.03 -1127.5 4229.66 4227.85
7845.9 -1198.45 -1144.85 4247.05 4291.89
7848.65 -1078.07 -1111.35 4398.96 4464.15
7851.4 -1057.52 -1078.41 4746.45 4764.43
7854.15 -1099.63 -1094.41 5147.88 4991.68
7856.9 -1126.1 -1106.16 5080.71 5112.02
7859.65 -1092.75 -1088.17 5107.47 4962.43
7862.4 -1045.66 -1090.84 4699.12 4883.02
7865.14 -1134.12 -1102.12 4842.47 4783.57
7867.89 -1126.57 -1121.64 4809.13 4835.77
7870.64 -1104.24 -1113.8 4855.71 4788.07
7873.39 -1110.6 -1091.69 4699.37 4783.75
7876.14 -1060.24 -1111.37 4796.17 4781.71
7878.88 -1163.27 -1093.24 4849.59 4872.61
7881.63 -1056.21 -1112.35 4972.05 4881.6
7884.38 -1117.59 -1088.81 4823.16 4997.59
7887.13 -1092.65 -1066.1 5197.56 4948.66
7889.87 -988.074 -1036.82 4825.26 4879.82
7892.62 -1029.75 -1032.53 4616.64 4724.39
7895.36 -1079.76 -1062.7 4731.27 4611.64
7898.11 -1078.58 -1083.03 4486.99 4556.23
7900.86 -1090.75 -1094.15 4450.43 4309.16
7903.6 -1113.12 -1096.29 3990.05 4197.97
7906.35 -1085.01 -1055.03 4153.42 4208.38
7909.09 -966.952 -1047.12 4481.66 4545.65
7911.84 -1089.38 -1023.76 5001.87 4943.57
7914.58 -1014.95 -1041.62 5347.19 5203.99
7917.33 -1020.51 -1048.58 5262.91 5257.36
7920.07 -1110.29 -1059.77 5161.97 5175.65
7922.81 -1048.52 -1047.22 5102.08 5048.16
7925.56 -982.839 -1038.83 4880.45 4939.82
7928.3 -1085.13 -1048.97 4836.94 4865.86
7931.05 -1078.95 -1067.19 4880.21 4810
7933.79 -1037.49 -1051.85 4712.85 4777.93
7936.53 -1039.12 -1034.06 4740.74 4739.77
7939.27 -1025.56 -1020.6 4765.72 4702.8
7942.02 -997.119 -987.455 4601.93 4602.57
7944.76 -939.68 -974.754 4440.05 4526.04
7947.5 -987.464 -973.895 4536.14 4526.59
7950.24 -994.541 -1009.57 4603.58 4609.29
7952.98 -1046.71 -1028.49 4688.14 4568.16
7955.73 -1044.23 -1029.91 4412.76 4477.12
7958.47 -998.787 -1005.83 4330.45 4512.37
7961.21 -974.46 -955.038 4793.9 4748.35
7963.95 -891.867 -941.683 5120.7 5009.07
7966.69 -958.721 -969.403 5112.62 5116.01
7969.43 -1057.62 -1007.01 5114.7 5034.38
7972.17 -1004.68 -1013.58 4875.81 4904.8
7974.91 -978.449 -1005.11 4723.89 4732.46
7977.65 -1032.18 -990.332 4597.68 4680.24
7980.39 -960.365 -995.33 4719.14 4654.9
7983.13 -993.443 -959.375 4647.88 4581.34
7985.86 -924.319 -972.299 4377.01 4670.63
7988.6 -999.137 -941.427 4986.99 4783.06
7991.34 -900.826 -922.668 4985.18 5132.22
7994.08 -868.04 -919.227 5424.49 5232.93
7996.82 -988.816 -927.754 5289.13 5216.4
7999.55 -926.405 -957.798 4935.59 4956.89
8002.29 -958.174 -927.421 4645.94 4676.9
8005.03 -897.685 -948.2 4449.17 4589.42
8007.77 -988.74 -958.392 4673.15 4622.69
8010.5 -988.751 -978.637 4745.74 4642.25
8013.24 -958.42 -972.733 4507.87 4672.65
8015.98 -971.029 -959.885 4764.36 4624.8
8018.71 -950.207 -949.729 4602.18 4690.48
8021.45 -927.951 -906.677 4704.9 4836.76
8024.18 -841.874 -913.037 5203.19 5083.78
8026.92 -969.285 -874.251 5343.25 5177.53
8029.65 -811.593 -919.871 4986.15 5122.59
8032.39 -978.737 -924.602 5038.38 5023.5
8035.12 -983.476 -956.145 5045.97 4960.79
8037.86 -906.223 -939.206 4798.02 4851.76
8040.59 -927.919 -932.765 4711.29 4694.83
8043.32 -964.152 -920.393 4575.19 4628.18
8046.06 -869.108 -899.224 4598.05 4598.68
8048.79 -864.413 -872.05 4622.8 4656.75
8051.53 -882.628 -900.79 4749.4 4643.52
8054.26 -955.329 -928.501 4558.37 4699.67
8056.99 -947.546 -926.574 4791.24 4737.7
8059.72 -876.847 -916.705 4863.5 4945.86
8062.46 -925.722 -917.851 5182.83 5037.18
8065.19 -950.984 -934.04 5065.21 5074.24
8067.92 -925.413 -914.136 4974.66 4888.59
8070.65 -866.012 -883.098 4625.91 4833.16
8073.38 -857.869 -867.107 4898.91 4807.61
8076.11 -877.441 -887.009 4898.02 4817.47
8078.84 -925.717 -899.778 4655.46 4769.91
8081.57 -896.176 -911.558 4756.26 4718.71
8084.31 -912.781 -878.468 4744.4 4667.92
8087.04 -826.447 -864.573 4503.11 4631.28
8089.77 -854.491 -842.847 4646.34 4579.72
8092.49 -847.604 -864.951 4589.72 4673.71
8095.22 -892.759 -862.852 4785.08 4696.44
8097.95 -848.195 -874.566 4714.53 4752.5
8100.68 -882.743 -859.36 4757.87 4765.41
8103.41 -847.142 -864.423 4823.83 4738.21
8106.14 -863.384 -846.095 4632.93 4717.71
8108.87 -827.76 -838.778 4696.37 4641.73
8111.6 -825.191 -845.961 4595.88 4664.56
8114.32 -884.932 -845.773 4701.44 4639.54
8117.05 -827.195 -845.109 4621.3 4657.29
8119.78 -823.2 -839.272 4649.14 4647.72
8122.51 -867.422 -843.779 4672.71 4640.2
8125.23 -840.715 -867.13 4598.76 4671.11
8127.96 -893.253 -850.994 4741.86 4638.1
8130.69 -819.013 -852.548 4573.7 4653.31
8133.41 -845.379 -821.904 4644.38 4622.57
8136.14 -801.319 -824.204 4649.63 4579.83
8138.86 -825.913 -816.769 4445.47 4563.92
8141.59 -823.075 -813.649 4596.65 4505.26
8144.31 -791.959 -791.846 4473.67 4510.67
8147.04 -760.504 -782.762 4461.68 4516.59
8149.76 -795.823 -1158.75 4614.43 6561.74
8152.49 -1919.91 -1162.43 10609.1 6556.28
8155.21 -771.567 -1170.38 4445.27 6501.95
8157.94 -819.651 -790.932 4451.45 4396.01
8160.66 -781.578 -787.458 4291.29 4338.99
8163.38 -761.146 -755.656 4274.21 4255
8166.11 -724.245 -748.363 4199.51 4209.6
8168.83 -759.697 -751.056 4155.08 4231.07
8171.55 -769.226 -745.483 4338.63 4248.14
8174.27 -707.525 -746.19 4250.7 4257.66
8177 -761.817 -731.616 4183.65 4242.48
8179.72 -725.505 -736.612 4293.08 4190.26
8182.44 -722.513 -725.782 4094.04 4185.82
8185.16 -729.329 -714.299 4170.35 4152.63
8187.88 -691.056 -722.134 4193.51 4241.17
8190.61 -746.018 -726.206 4359.66 4278.36
8193.33 -741.544 -717.935 4281.92 4218.08
8196.05 -666.242 -714.588 4012.67 4139.94
8198.77 -735.977 -711.192 4125.23 4158.45
8201.49 -731.358 -753.46 4337.43 4371.13
8204.21 -793.044 -758.434 4650.73 4456.83
8206.93 -750.899 -777.095 4382.32 4568.42
8209.65 -787.34 -748.357 4672.21 4461.4
8212.36 -706.831 -745.136 4329.66 4443.86
8215.08 -741.237 -742.27 4329.71 4370.82
8217.8 -778.742 -763.329 4453.08 4370.62
8220.52 -770.009 -749.232 4329.08 4261.34
8223.24 -698.945 -722.469 4001.86 4119.34
8225.96 -698.452 -693.604 4027.1 3984.34
8228.67 -683.416 -674.959 3924.05 3925.07
8231.39 -643.009 -661.63 3824.06 3939.61
8234.11 -658.465 -678.658 4070.71 4043.76
8236.83 -734.501 -719.831 4236.52 4179.03
8239.54 -766.527 -731.352 4229.86 4277.09
8242.26 -693.028 -727.214 4364.88 4324.4
8244.98 -722.089 -719.575 4378.45 4462.19
8247.69 -743.609 -737.554 4643.23 4516.21
8250.41 -746.965 -741.073 4526.95 4544.97
8253.12 -732.647 -746.734 4464.74 4447.82
8255.84 -760.591 -733.607 4351.77 4417.9
8258.55 -707.583 -748.774 4437.19 4371.19
8261.27 -778.148 -712.58 4324.63 4338.38
8263.98 -652.008 -715.596 4253.33 4331.9
8266.7 -716.633 -713.704 4417.74 4332.83
8269.41 -772.47 -741.983 4327.43 4313.56
8272.12 -736.847 -751.083 4195.52 4187.27
8274.84 -743.931 -707.191 4038.85 4037.59
8277.55 -640.795 -681.921 3878.4 3980.99
8280.26 -661.038 -699.767 4025.7 4020.18
8282.98 -797.467 -730.312 4156.45 4067.81
8285.69 -732.43 -747.642 4021.28 4084.21
8288.4 -713.029 -720.915 4074.91 4036.39
8291.11 -717.287 -749.555 4012.98 4066.82
8293.83 -818.35 -767.776 4112.57 4134.04
8296.54 -767.693 -776.315 4276.58 4260.51
8299.25 -742.902 -763.4 4392.4 4422.04
8301.96 -779.606 -783.493 4597.15 4441.74
8304.67 -827.972 -781.197 4335.67 4439.47
8307.38 -736.014 -780.532 4385.58 4333.6
8310.09 -777.61 -783.344 4279.56 4353.07
8312.8 -836.407 -804.248 4394.07 4334.52
8315.51 -798.726 -830.283 4329.92 4367.08
8318.22 -855.716 -826.021 4377.24 4368.43
8320.93 -823.622 -834.118 4398.11 4348.26
8323.64 -823.015 -808.324 4269.41 4297.2
8326.35 -778.337 -781.876 4224.09 4220.51
8329.06 -744.278 -782.23 4168.03 4245.92
8331.76 -824.075 -780.303 4345.63 4125.87
8334.47 -772.555 -793.003 3863.95 3861.67
8337.18 -782.379 -738.816 3375.42 3576.68
8339.89 -661.514 -728.537 3490.68 3646.64
8342.59 -741.718 -688.628 4073.83 3956.2
8345.3 -662.652 -770.79 4304.08 4467.2
8348.01 -907.998 -810.97 5023.69 4710.97
8350.72 -862.259 -827.742 4805.14 4763.24
8353.42 -712.968 -781.706 4460.89 4571.67
8356.13 -769.892 -766.503 4448.98 4455.72
8358.83 -816.65 -786.975 4457.3 4393.51
8361.54 -774.384 -790.448 4274.24 4303.48
8364.24 -780.31 -785.215 4178.88 4262.69
8366.95 -800.951 -802.884 4334.94 4315.69
8369.65 -827.39 -810.032 4433.24 4355.93
8372.36 -801.754 -817.804 4299.61 4298.31
8375.06 -824.268 -785.085 4162.08 4176.09
8377.77 -729.234 -795.015 4066.56 4149.57
8380.47 -831.542 -770.302 4220.07 4215.69
8383.17 -750.129 -790.913 4360.44 4294.22
8385.88 -791.066 -774.815 4302.17 4314.79
8388.58 -783.249 -781.375 4281.75 4181.58
8391.28 -769.81 -770.026 3960.81 4079.32
8393.99 -757.017 -765.169 3995.39 4010.43
8396.69 -768.679 -765.306 4075.1 4178
8399.39 -770.223 -776.824 4463.51 4498.78
8402.09 -791.57 -792.618 4957.72 4723.46
8404.79 -816.06 -790.704 4749.13 4677.09
8407.49 -764.482 -789.202 4324.42 4416.55
8410.19 -787.064 -784.781 4176.11 4294.4
8412.9 -802.799 -783.84 4382.68 4280.98
8415.6 -761.656 -770.352 4284.15 4286.08
8418.3 -746.601 -758.007 4191.41 4209.62
8421 -765.764 -765.756 4153.3 4121.04
8423.7 -784.904 -766.858 4018.41 3985.21
8426.4 -749.907 -780.591 3783.92 3965.94
8429.09 -806.964 -755.803 4095.49 4039.86
8431.79 -710.539 -768.612 4240.16 4297.43
8434.49 -788.334 -762.755 4556.63 4415.89
8437.19 -789.392 -781.501 4450.87 4446.11
8439.89 -766.777 -760.482 4330.81 4349.75
8442.59 -725.277 -753.385 4267.56 4279.81
8445.28 -768.101 -752.513 4241.06 4190.97
8447.98 -764.161 -761.471 4064.31 4220.27
8450.68 -752.152 -749.136 4355.44 4200.52
8453.38 -731.095 -750.65 4181.82 4326.65
8456.07 -768.702 -752.229 4442.69 4212.04
8458.77 -756.889 -742.109 4011.59 4115.52
8461.46 -700.737 -725.435 3892.28 3979.48
8464.16 -718.677 -709.703 4034.57 4081.37
8466.86 -709.696 -716.048 4317.26 4226.6
8469.55 -719.77 -732.131 4327.98 4288.44
8472.25 -766.928 -747.49 4220.08 4266.47
8474.94 -755.773 -755.545 4251.34 4188.81
8477.64 -743.936 -759.932 4095 4160.04
8480.33 -780.087 -764.236 4133.76 4120.67
8483.02 -768.685 -769.665 4133.24 4168.36
8485.72 -760.223 -771.397 4238.09 4205.35
8488.41 -785.283 -779.912 4244.73 4190.91
8491.1 -794.229 -766.795 4089.9 4123.95
8493.8 -720.873 -750.063 4037.22 3981.79
8496.49 -735.088 -689.894 3818.26 3830.95
8499.18 -613.721 -682.212 3637.35 3833.97
8501.87 -697.828 -661.928 4046.31 3933.38
8504.57 -674.234 -706.937 4116.49 4079.74
8507.26 -748.747 -743.922 4076.42 4148.41
8509.95 -808.784 -776.054 4252.32 4128.37
8512.64 -770.631 -771.85 4056.36 4129.04
8515.33 -736.135 -745.358 4078.44 4070.07
8518.02 -729.309 -738.154 4075.41 4062.69
8520.71 -749.018 -743.372 4034.21 4058.52
8523.4 -751.788 -743.939 4065.94 4022.86
8526.09 -731.011 -734.061 3968.42 3986.6
8528.78 -719.386 -732.287 3925.42 4039.55
8531.47 -746.465 -739.076 4224.79 4112.72
8534.16 -751.378 -727.035 4187.95 4138.28
8536.85 -683.261 -709.434 4002.1 3996.16
8539.54 -693.663 -648.636 3798.44 3737.52
8542.23 -568.983 -600.334 3412.03 3494.82
8544.91 -538.357 -563.468 3273.97 3387.07
8547.6 -583.065 -598.21 3475.2 3576.06
8550.29 -673.209 -654.423 3979 3828.08
8552.98 -706.995 -695.808 4030.03 4040.13
8555.66 -707.22 -711.731 4111.35 4057.98
8558.35 -720.976 -714.471 4032.55 4052.41
8561.04 -715.216 -716.927 4013.32 4080.4
8563.72 -714.59 -732.179 4195.33 4143.19
8566.41 -766.73 -764.803 4220.92 4257.6
8569.09 -813.09 -773.637 4356.56 4254.85
8571.78 -741.092 -758.701 4187.07 4265.99
8574.46 -721.921 -739.571 4254.33 4222.83
8577.15 -755.699 -734.714 4227.09 4173.81
8579.83 -726.522 -748.42 4040.01 4175.19
8582.52 -763.039 -741.66 4258.46 4130.81
8585.2 -735.42 -744.907 4093.97 4173.85
8587.89 -736.262 -748.964 4169.12 4164.3
8590.57 -775.209 -741.152 4229.8 4157.83
8593.25 -711.983 -736.561 4074.57 4170.93
8595.94 -722.49 -712.147 4208.42 4073.85
8598.62 -701.969 -711.273 3938.57 4088.75
8601.3 -709.36 -709.104 4119.25 4026.85
8603.98 -715.984 -733.181 4022.73 4121.02
8606.66 -774.199 -739.258 4221.09 4159.91
8609.35 -727.592 -741.166 4235.91 4202.27
8612.03 -721.707 -729.495 4149.8 4156.38
8614.71 -739.188 -738.192 4083.41 4130.1
8617.39 -753.682 -750.395 4157.1 4176.53
8620.07 -758.314 -724.812 4289.07 4208.64
8622.75 -662.44 -734.448 4179.77 4249.01
8625.43 -782.591 -748.595 4278.19 4236.99
8628.11 -800.756 -778.258 4253 4293.47
8630.79 -751.426 -754.662 4349.23 4216.02
8633.47 -711.804 -729.476 4045.84 4184.74
8636.15 -725.198 -736.498 4159.15 4101.12
8638.83 -772.493 -746.803 4098.37 4136.16
8641.5 -742.717 -771.808 4150.98 4211.84
8644.18 -800.213 -751.09 4386.19 4217.43
8646.86 -710.34 -755.015 4115.12 4218.08
8649.54 -754.492 -725.114 4152.92 4138.64
8652.22 -710.509 -726.508 4147.87 4209.77
8654.89 -714.522 -704.521 4328.52 4223.52
8657.57 -688.533 -683.791 4194.18 4136.92
8660.25 -648.317 -646.673 3888.07 3849.32
8662.92 -603.169 -596.926 3465.72 3538.55
8665.6 -539.292 -579.45 3261.84 3372.42
8668.27 -595.891 -593.386 3389.68 3433.6
8670.95 -644.975 -661.744 3649.28 3638.45
8673.62 -744.368 -708.335 3876.4 3862.23
8676.3 -735.662 -734.417 4061.02 3960.88
8678.97 -723.221 -725.105 3945.24 3978.84
8681.65 -716.431 -713.891 3930.26 3957.71
8684.32 -702.021 -704.341 3997.64 3990.18
8687 -694.572 -706.643 4042.63 3985.86
8689.67 -723.335 -702.886 3917.3 3931.49
8692.34 -690.749 -725.373 3834.54 3954.26
8695.02 -762.034 -731.335 4110.95 3950.37
8697.69 -741.221 -745.28 3905.63 4050.97
8700.36 -732.585 -733.93 4136.34 4039.05
8703.03 -727.985 -729.276 4075.18 4111.99
8705.7 -727.259 -728.527 4124.44 4118.33
8708.38 -730.338 -737.663 4155.37 4120.19
8711.05 -755.392 -743.622 4080.75 4163.19
8713.72 -745.138 -731.957 4253.45 4064.12
8716.39 -695.343 -714.054 3858.17 3967.85
8719.06 -701.681 -712.382 3791.94 3899.98
8721.73 -740.122 -734.569 4049.85 4000
8724.4 -761.903 -750.213 4158.22 4140.05
8727.07 -748.613 -754.335 4212.1 4152.06
8729.74 -752.49 -729.974 4085.85 4050.75
8732.41 -688.82 -713.723 3854.29 3988.08
8735.08 -699.858 -699.055 4024.1 3963.49
8737.75 -708.488 -705.701 4012.07 3960.22
8740.41 -708.757 -711.926 3844.48 3932.79
8743.08 -718.534 -718.934 3941.83 3934.41
8745.75 -729.511 -704.376 4016.91 3945.76
8748.42 -665.084 -696.737 3878.55 3961.39
8751.08 -695.616 -696.224 3988.69 3935.86
8753.75 -727.973 -683.777 3940.34 3942.99
8756.42 -627.743 -670.13 3899.92 4094.51
8759.08 -654.674 -667.416 4443.27 4337.47
8761.75 -719.832 -667.984 4669.23 4672.99
8764.42 -629.447 -719.069 4906.47 4870.35
8767.08 -807.926 -712.038 5035.35 4807.1
8769.75 -698.742 -711.337 4479.5 4555.42
8772.41 -627.342 -688.389 4151.4 4167.15
8775.08 -739.083 -697.025 3870.55 4102.45
8777.74 -724.65 -710.646 4285.4 4066.14
8780.4 -668.206 -748.876 4042.48 4093.56
8783.07 -853.773 -764.443 3952.81 3685.63
8785.73 -771.349 -792.64 3061.6 3354.22
8788.4 -752.799 -739.073 3048.26 3087.91
8791.06 -693.07 -701.336 3153.87 3176.64
8793.72 -658.138 -687.738 3327.78 3241.06
8796.38 -712.005 -679.532 3241.53 3230.06
8799.05 -668.452 -686.597 3120.88 3203.2
8801.71 -679.332 -684.045 3247.18 3262.33
8804.37 -704.35 -667.241 3418.93 3345.24
8807.03 -618.039 -641.826 3369.62 3411.45
8809.69 -603.088 -616.78 3445.82 3460.19
8812.35 -629.211 -623.826 3565.14 3546.94
8815.01 -639.178 -649.99 3629.87 3672.62
8817.67 -681.58 -684.133 3822.86 3770.33
8820.33 -731.64 -691.4 3858.28 4102.83
8822.99 -660.979 -629.924 4627.35 4661.68
8825.65 -497.154 -606.528 5499.42 5417.45
8828.31 -661.451 -611.737 6125.59 5850.74
8830.97 -676.606 -662.454 5927.21 5610.91
8833.63 -649.304 -648.714 4779.93 4792.41
8836.29 -620.231 -649.969 3670.08 3879.06
8838.95 -680.374 -652.168 3187.18 3250.45
8841.6 -655.9 -660.986 2894.08 2813.39
8844.26 -646.684 -655.329 2358.9 2550.95
8846.92 -663.402 -649.356 2399.86 2400.08
8849.57 -637.98 -653.031 2441.48 2482.13
8852.23 -657.712 -673.227 2605.06 2721.02
8854.89 -723.988 -676.684 3116.53 2848.96
8857.54 -648.354 -675.043 2825.28 2982.46
8860.2 -652.787 -659.309 3005.58 3046.92
8862.85 -676.786 -647.136 3309.91 3294.32
8865.51 -611.835 -629.043 3567.47 3580.63
8868.16 -598.509 -609.526 3864.52 3732.49
8870.82 -618.235 -612.919 3765.48 3763.7
8873.47 -622.014 -642.129 3661.1 3602.25
8876.13 -686.139 -655.543 3380.18 3466.73
8878.78 -658.476 -657.796 3358.92 3441.69
8881.43 -628.774 -636.577 3585.98 3792.86
8884.09 -622.48 -644.201 4433.67 4366.07
8886.74 -681.348 -647.723 5078.55 4824.6
8889.39 -639.341 -665.96 4961.58 4702.22
8892.04 -677.189 -659.723 4066.51 4045.33
8894.7 -662.639 -675.93 3107.9 3310.25
8897.35 -687.963 -668.208 2756.34 2912.26
8900 -654.023 -668.468 2872.55 3014.18
8902.65 -663.418 -656.38 3413.66 3303.95
8905.3 -651.698 -640.083 3625.63 3457.16
8907.95 -605.134 -655.217 3332.19 3356.89
8910.6 -708.818 -677.355 3112.84 3114.97
8913.25 -718.111 -676.341 2899.88 3033.32
8915.9 -602.093 -632.686 3087.23 3375.78
8918.55 -577.852 -564.329 4140.22 4002.23
8921.2 -513.042 -550.737 4779.24 4508.59
8923.85 -561.316 -584.447 4606.3 4362.76
8926.5 -678.984 -629.816 3702.75 3682.34
8929.15 -649.148 -656.801 2737.98 2953.92
8931.79 -642.272 -628.498 2421.02 2494.73
8934.44 -594.072 -642.589 2325.19 2496.45
8937.09 -691.423 -641.226 2743.14 2623.79
8939.74 -638.181 -674.354 2803.05 2880.38
8942.38 -693.457 -652.586 3094.95 3038.25
8945.03 -626.118 -645.176 3216.73 3172.84
8947.68 -615.952 -608.61 3206.84 3118.47
8950.32 -583.759 -603.777 2931.83 2989.23
8952.97 -611.621 -604.737 2829 3049.96
8955.61 -618.831 -590.497 3389.05 3401.84
8958.26 -541.04 -610.373 3987.45 3945.36
8960.9 -671.247 -586.909 4459.58 4113.56
8963.55 -548.441 -618.336 3893.65 3753.07
8966.19 -635.319 -596.028 2905.98 3085.43
8968.84 -604.323 -600.619 2456.67 2541.4
8971.48 -562.215 -578.928 2261.56 2381.36
8974.12 -570.245 -568.113 2425.84 2343.38
8976.77 -571.879 -566.333 2342.74 2428.15
8979.41 -556.875 -569.603 2515.87 2474.6
8982.05 -580.056 -568.647 2565.18 2584.84
8984.69 -569.01 -560.784 2673.46 2691.66
8987.34 -533.287 -553.989 2836.34 2793.19
8989.98 -559.669 -529.793 2869.77 2803.14
8992.62 -496.424 -526.02 2703.31 2682.09
8995.26 -521.967 -516.843 2473.18 2531.67
8997.9 -532.139 -519.958 2418.53 2545.84
9000.54 -505.768 -527.581 2745.83 2777.81
9003.18 -544.837 -557.905 3169.08 3060.74
9005.82 -623.111 -570.618 3267.33 3119.74
9008.46 -543.906 -577.622 2922.8 2887.68
9011.1 -565.85 -538.268 2472.9 2584.24
9013.74 -505.049 -531.853 2357 2355.81
9016.38 -524.659 -507.841 2237.51 2289.03
9019.02 -493.816 -506.949 2272.58 2279.4
9021.65 -502.371 -500.362 2328.1 2331.3
9024.29 -504.9 -508.886 2393.21 2394.79
9026.93 -519.388 -523.22 2463.06 2444.91
9029.57 -545.373 -542.85 2478.45 2544.24
9032.2 -563.789 -542.535 2691.2 2622.32
9034.84 -518.443 -574.306 2697.3 2778.87
9037.48 -640.686 -570.753 2948.12 2899.04
9040.11 -553.13 -595.366 3051.71 3003.71
9042.75 -592.281 -576.582 3011.31 2934.9
9045.38 -584.334 -585.143 2741.67 2900.23
9048.02 -578.814 -577.977 2947.72 2924.77
9050.65 -570.782 -579.48 3084.92 3066.72
9053.29 -588.844 -578.969 3167.53 3067.56
9055.92 -577.281 -567.203 2950.24 2885.63
9058.56 -535.483 -574.552 2539.11 2686.37
9061.19 -610.891 -555.407 2569.76 2521
9063.82 -519.847 -553.174 2454.12 2492.79
9066.46 -528.784 -476.271 2454.48 2299.55
9069.09 -380.182 -395.284 1990.05 1931.07
9071.72 -276.887 -219.023 1348.69 1112.91
