wavelength spec_sum spec_optimal
3525.79 8.02921 -3.09784
3528.71 1.50969 -9.07793
3531.63 -11.0935 0.452373
3534.55 11.9908 -3.91009
3537.47 -15.1326 -1.24251
3540.39 -17.9319 -5.82258
3543.31 -14.8006 6.26003
3546.23 -22.5151 -3.20909
3549.15 -5.61334 3.89668
3552.07 -1.3376 1.20732
3554.99 2.00362 4.59336
3557.91 -8.39551 0.84644
3560.83 -4.73422 0.739424
3563.75 4.84455 13.9864
3566.67 13.4116 9.88082
3569.59 9.16263 1.3268
3572.51 -10.8005 0.00592678
3575.43 11.9033 0.738504
3578.35 10.5719 8.91938
3581.27 15.0811 6.45568
3584.19 14.6706 9.73607
3587.11 15.6472 4.29422
3590.03 -7.27988 -10.5183
3592.95 -0.546068 -5.57444
3595.87 0.260586 -4.29763
3598.79 -3.55925 -1.05137
3601.71 28.2323 1.56085
3604.63 14.2851 -0.391013
3607.55 22.5924 -7.64373
3610.47 11.6815 1.45214
3613.39 -0.726314 2.63839
3616.3 7.87712 -5.27872
3619.22 -2.29939 5.78794
3622.14 5.61208 -3.70678
3625.06 3.93794 -3.76424
3627.98 9.0552 -4.69756
3630.9 8.69931 2.61378
3633.82 7.55025 1.29103
3636.74 -27.2353 4.9621
3639.66 0.524262 3.57247
3642.58 -1.29466 6.13981
3645.5 -5.50942 0.034905
3648.42 0.995586 0.726437
3651.34 -12.3277 8.65016
3654.26 -37.1096 6.56326
3657.18 -11.3677 -4.58855
3660.09 -21.1105 -0.931286
3663.01 -9.70051 14.4182
3665.93 -27.9332 1.41108
3668.85 -33.5014 7.211
3671.77 -0.552818 5.80987
3674.69 -6.46148 1.45535
3677.61 -3.60913 -3.38585
3680.53 -23.5073 6.35861
3683.45 -6.36005 -4.37616
3686.37 -11.4609 3.51924
3689.29 -10.733 7.19686
3692.2 -7.00723 8.08448
3695.12 -17.5277 -6.70359
3698.04 -45.2074 2.57935
3700.96 -24.1746 3.30152
3703.88 -8.42946 1.15675
3706.8 -6.59973 6.52805
3709.72 -7.83075 3.07938
3712.64 -10.8449 -1.84531
3715.56 9.79022 5.19675
3718.47 11.0094 12.0152
3721.39 -12.5059 8.15308
3724.31 13.63 6.39631
3727.23 -9.19472 10.4279
3730.15 13.3717 8.05365
3733.07 14.6994 -0.595317
3735.99 13.448 8.11667
3738.91 9.32378 -2.86122
3741.82 4.24634 8.6039
3744.74 23.0748 9.2892
3747.66 19.0692 3.84412
3750.58 -29.8079 3.15964
3753.5 -6.46569 -0.333314
3756.42 -2.48647 0.269482
3759.33 0.0444933 5.27189
3762.25 -7.63446 4.69318
3765.17 -2.28452 3.06585
3768.09 -15.2805 3.83982
3771.01 -7.46612 2.20133
3773.93 -18.6286 3.27725
3776.84 -23.8482 3.97031
3779.76 -49.6981 1.30842
3782.68 -21.7609 -5.76494
3785.6 -13.8179 -5.16532
3788.52 -8.87531 -2.34599
3791.44 -7.34908 -0.871423
3794.35 -4.45059 2.29126
3797.27 -17.3698 5.38637
3800.19 -15.7008 -2.33364
3803.11 -13.1431 1.17475
3806.03 -47.5249 4.70548
3808.94 -9.81917 4.42583
3811.86 -7.4829 -4.48604
3814.78 1.56398 1.22291
3817.7 4.64327 1.59056
3820.62 13.0929 -1.9799
3823.53 17.5466 -1.82055
3826.45 26.3434 -2.00969
3829.37 25.2094 -3.5688
3832.29 34.5592 2.84557
3835.21 7.17409 -0.850601
3838.12 19.2175 -1.08936
3841.04 -16.0417 -0.61051
3843.96 -3.06977 -3.48905
3846.88 0.33427 -0.600276
3849.79 1.42536 2.72933
3852.71 1.55408 -3.71432
3855.63 -14.7765 1.64605
3858.55 5.36513 0.321541
3861.46 -3.2124 0.022336
3864.38 -3.84081 -0.513786
3867.3 2.3544 -3.10286
3870.22 -2.31503 -4.37431
3873.13 -2.78963 -2.84838
3876.05 1.01576 1.3984
3878.97 0.0274996 -5.46276
3881.89 2.6228 -4.73099
3884.8 13.6361 -7.02876
3887.72 10.4344 -5.2604
3890.64 -3.97394 -5.49246
3893.55 -0.969513 0.44139
3896.47 -10.3449 4.09805
3899.39 -13.1757 -1.47551
3902.31 -11.0064 -7.16119
3905.22 -2.00416 -2.06011
3908.14 -13.8471 -1.1031
3911.06 -18.5954 3.41637
3913.97 -39.4954 -2.84499
3916.89 -26.9369 -3.05215
3919.81 -13.245 5.76046
3922.72 8.29271 -3.40818
3925.64 26.2446 -4.37782
3928.56 26.5869 -6.28056
3931.47 39.8398 -4.72065
3934.39 40.0155 -5.34232
3937.31 27.7272 -5.61401
3940.23 26.48 -3.89468
3943.14 -0.0484397 -3.34658
3946.06 0.684257 -2.18718
3948.97 -4.43378 3.88212
3951.89 -12.0186 -3.38751
3954.81 -10.7651 -1.103
3957.72 -4.9673 -12.2965
3960.64 5.38449 -13.4012
3963.56 2.68283 -16.1053
3966.47 35.1713 -12.7945
3969.39 25.4179 -13.8718
3972.31 13.4108 -5.84764
3975.22 -19.5618 -9.00797
3978.14 -16.8366 -6.69552
3981.06 -27.9939 -9.6224
3983.97 -22.8922 -5.43444
3986.89 -30.2165 -2.2899
3989.8 -32.624 -0.503671
3992.72 -37.4828 -11.7114
3995.64 -63.5145 5.96884
3998.55 -28.7905 -0.963868
4001.47 -66.6736 2.11712
4004.38 -28.4819 4.99499
4007.3 -36.3206 -8.88748
4010.22 -36.6026 -0.874063
4013.13 -72.8953 3.41307
4016.05 -34.3745 6.04231
4018.96 -78.0125 -7.80692
4021.88 -39.8596 -4.60276
4024.79 -41.2455 -4.12359
4027.71 -81.9653 0.9447
4030.63 -34.1813 -5.4404
4033.54 -34.3356 -6.15399
4036.46 -35.834 -3.73684
4039.37 -41.3808 -4.04139
4042.29 -31.2482 -0.890286
4045.2 -26.1079 0.611888
4048.12 -29.3749 -4.16156
4051.03 -28.9332 2.75727
4053.95 -27.5372 6.29982
4056.87 -37.3953 3.96161
4059.78 -68.0438 -5.72066
4062.7 -25.0785 -2.57663
4065.61 -33.7505 9.58917
4068.53 -36.059 -3.99712
4071.44 -61.1955 4.15293
4074.36 -25.7814 0.0700015
4077.27 -37.1538 -6.58675
4080.19 -36.1453 -3.25223
4083.1 -43.4234 -3.05217
4086.02 -48.4618 -3.80019
4088.93 -89.284 2.42494
4091.85 -88.2881 -4.82744
4094.76 -40.7343 -6.87694
4097.68 -30.5324 -1.3395
4100.59 -28.28 -4.31718
4103.51 -34.9069 1.31472
4106.42 -75.2393 0.325551
4109.33 -79.548 2.56409
4112.25 -57.4515 -4.25423
4115.16 -86.4552 -0.805101
4118.08 -52.3955 0.382482
4120.99 -54.0773 7.61064
4123.91 -49.2947 0.212748
4126.82 -53.4831 -3.05964
4129.74 -47.3583 2.99333
4132.65 -42.6384 7.91868
4135.56 -47.8818 3.17277
4138.48 -46.6889 4.20234
4141.39 -34.8679 9.00841
4144.31 -43.7224 0.345418
4147.22 -48.644 0.592934
4150.14 -49.5096 1.38181
4153.05 -45.7467 5.46617
4155.96 -76.315 7.45358
4158.88 -85.6047 8.67567
4161.79 -52.0167 10.0758
4164.71 -53.4205 4.83557
4167.62 -48.4917 8.69014
4170.53 -46.0802 11.0323
4173.45 -39.421 5.74075
4176.36 -49.3091 1.32261
4179.27 -43.9484 8.30099
4182.19 -42.8527 3.62371
4185.1 -38.376 4.37828
4188.02 -43.9326 6.5776
4190.93 -43.3272 12.3123
4193.84 -39.3512 8.44932
4196.76 -39.9346 6.40018
4199.67 -40.261 11.5215
4202.58 -34.7538 6.41893
4205.5 -46.9229 3.31362
4208.41 -42.2824 3.36329
4211.32 -44.8959 10.4924
4214.24 -72.3387 6.11988
4217.15 -44.9138 9.26608
4220.06 -41.2881 5.65358
4222.97 -39.373 6.65692
4225.89 -26.6901 4.0523
4228.8 -29.0123 3.54662
4231.71 -41.4571 3.62065
4234.63 -35.9261 2.72702
4237.54 -75.9985 4.68196
4240.45 -73.6411 3.10548
4243.36 -43.0831 8.12386
4246.28 -36.671 8.16027
4249.19 -38.0726 9.25307
4252.1 -68.5012 6.4444
4255.02 -70.1458 5.12013
4257.93 -38.8371 5.43553
4260.84 -40.9623 4.92245
4263.75 -49.1421 5.06352
4266.67 -39.2364 9.68337
4269.58 -26.1614 3.47805
4272.49 -33.1337 7.14801
4275.4 -33.9765 5.08624
4278.31 -78.6714 12.8461
4281.23 -36.6245 10.8968
4284.14 -67.6305 7.30314
4287.05 -31.0483 3.12087
4289.96 -33.5155 9.02442
4292.87 -35.6042 9.24354
4295.79 -26.1212 8.84261
4298.7 -21.4219 8.98721
4301.61 -18.3075 6.44235
4304.52 -43.1397 5.75176
4307.43 -12.5055 7.22488
4310.35 -23.5711 8.72472
4313.26 -31.6331 10.8235
4316.17 -75.1982 7.92475
4319.08 -48.3873 2.07572
4321.99 -47.0057 12.8381
4324.9 -46.244 5.09506
4327.81 -82.9135 6.2976
4330.73 -52.8301 3.1888
4333.64 -44.6723 3.92465
4336.55 -50.0043 7.07422
4339.46 -38.7303 7.85155
4342.37 -38.4624 8.67819
4345.28 -48.0617 4.41733
4348.19 -56.6518 0.59191
4351.1 -46.5194 3.29735
4354.02 -51.9855 -0.102919
4356.93 -57.7611 0.502756
4359.84 -54.8076 6.51256
4362.75 -54.8598 6.97446
4365.66 -65.5061 4.05236
4368.57 -60.3928 0.0789436
4371.48 -92.9231 3.22174
4374.39 -91.0069 6.25642
4377.3 -52.7804 7.8338
4380.21 -50.3937 3.23201
4383.12 -70.3146 3.41273
4386.03 -45.4276 0.995838
4388.94 -85.6401 0.73398
4391.85 -46.63 8.68528
4394.76 -48.6656 8.86591
4397.67 -88.6657 6.77259
4400.58 -52.0955 3.84497
4403.49 -49.6849 6.60967
4406.4 -52.3239 5.99628
4409.31 -87.0187 8.3107
4412.22 -56.4432 11.7719
4415.13 -56.5906 13.713
4418.04 -62.1575 6.96139
4420.95 -58.0051 10.4682
4423.86 -58.9022 12.7348
4426.77 -59.691 9.07696
4429.68 -57.3196 14.8283
4432.59 -91.818 16.3609
4435.5 -61.686 16.4782
4438.41 -101.96 13.7319
4441.32 -64.9035 11.5048
4444.23 -67.8654 16.4053
4447.14 -59.6279 10.5627
4450.05 -100.834 12.6187
4452.96 -57.8526 8.68387
4455.87 -56.8809 12.0596
4458.78 -58.2409 6.67053
4461.69 -60.6313 9.46867
4464.6 -62.8443 13.484
4467.5 -65.0073 7.19401
4470.41 -105.748 6.82118
4473.32 -109.945 10.9731
4476.23 -71.4657 7.40971
4479.14 -69.8286 10.2139
4482.05 -65.5299 7.49331
4484.96 -69.05 3.5757
4487.87 -71.1249 2.50147
4490.77 -71.0998 4.44723
4493.68 -106.189 7.47381
4496.59 -74.2885 3.67202
4499.5 -71.7077 11.6704
4502.41 -75.3051 7.16553
4505.32 -78.2127 4.28783
4508.22 -74.2545 4.09506
4511.13 -118.083 8.01767
4514.04 -73.8363 6.36685
4516.95 -74.0886 9.95467
4519.86 -75.8816 6.64492
4522.76 -74.3719 3.33679
4525.67 -64.2106 5.98373
4528.58 -66.4074 7.71479
4531.49 -104.87 4.22546
4534.4 -64.4679 3.54265
4537.3 -104.611 2.53502
4540.21 -68.0599 8.53056
4543.12 -73.0743 7.78489
4546.03 -67.5464 5.48034
4548.93 -110.726 12.7702
4551.84 -62.5914 9.16231
4554.75 -70.8503 8.48831
4557.66 -67.7263 11.4802
4560.56 -73.3073 10.2739
4563.47 -73.8691 5.10289
4566.38 -72.0864 3.62197
4569.28 -67.9254 9.27932
4572.19 -69.4915 11.0474
4575.1 -72.9263 7.17147
4578 -74.0744 5.07905
4580.91 -69.2804 6.77973
4583.82 -72.7827 11.4144
4586.73 -111.416 6.52227
4589.63 -117.42 17.3447
4592.54 -67.2032 14.5452
4595.44 -66.2633 8.30394
4598.35 -74.3707 8.98588
4601.26 -66.5756 7.50582
4604.16 -104.603 8.93976
4607.07 -74.058 9.42343
4609.98 -79.617 10.3473
4612.88 -111.993 11.229
4615.79 -72.7341 8.18877
4618.69 -72.2216 7.1135
4621.6 -73.1039 6.47145
4624.51 -75.0964 9.99667
4627.41 -118.301 11.1239
4630.32 -112.101 6.75718
4633.22 -74.597 6.80712
4636.13 -77.7134 2.04121
4639.04 -69.6681 5.74599
4641.94 -72.1776 5.70522
4644.85 -73.5122 7.46124
4647.75 -67.991 5.5843
4650.66 -70.8604 7.39446
4653.56 -64.5567 10.7526
4656.47 -71.066 11.2113
4659.37 -72.0805 7.13231
4662.28 -69.7968 8.31081
4665.18 -73.0932 7.73642
4668.09 -68.4746 4.56208
4670.99 -68.657 4.84253
4673.9 -69.0183 8.06207
4676.8 -71.8706 6.4921
4679.71 -71.0462 7.80691
4682.61 -69.9968 8.37274
4685.52 -108.201 7.67306
4688.42 -111.386 7.05226
4691.33 -74.8658 8.38308
4694.23 -75.4482 7.17415
4697.13 -76.2185 3.37341
4700.04 -76.5878 4.09213
4702.94 -71.1275 5.09957
4705.85 -69.9912 3.42471
4708.75 -60.929 5.8473
4711.66 -110.509 7.04703
4714.56 -120.515 7.06767
4717.46 -76.2819 3.09236
4720.37 -76.3797 3.06687
4723.27 -77.4342 2.13639
4726.18 -72.4712 4.66275
4729.08 -76.817 5.74392
4731.98 -112.314 6.106
4734.89 -114.553 4.78939
4737.79 -70.7599 1.9448
4740.69 -77.758 6.14467
4743.6 -75.5369 3.04128
4746.5 -74.589 4.6201
4749.4 -73.0263 7.31165
4752.31 -114.985 7.36747
4755.21 -75.5146 4.12989
4758.11 -72.7774 0.315312
4761.01 -73.6386 -0.388921
4763.92 -73.4712 -2.11277
4766.82 -72.0566 4.4075
4769.72 -110.479 5.71987
4772.63 -72.0015 9.22409
4775.53 -74.8034 5.07573
4778.43 -73.837 10.4122
4781.33 -79.8251 4.22337
4784.24 -112.282 2.72595
4787.14 -70.2162 5.07063
4790.04 -71.8682 -0.567893
4792.94 -76.7445 1.60523
4795.85 -74.2847 3.22209
4798.75 -72.1567 3.05372
4801.65 -73.678 4.6509
4804.55 -69.1133 4.15245
4807.45 -70.8032 2.02515
4810.35 -71.3457 3.58439
4813.26 -76.1653 3.73624
4816.16 -75.3941 0.304419
4819.06 -75.3554 3.09377
4821.96 -74.6392 5.0357
4824.86 -75.9426 5.13691
4827.76 -73.7876 8.30531
4830.67 -111.267 1.77694
4833.57 -77.1456 3.66001
4836.47 -74.7073 1.47559
4839.37 -77.0694 3.78349
4842.27 -79.9594 7.77239
4845.17 -78.9508 9.09165
4848.07 -111.494 2.97887
4850.97 -114.729 7.78848
4853.87 -72.9939 4.71226
4856.77 -62.8633 3.58503
4859.68 -53.7003 3.9169
4862.58 -49.6857 2.47452
4865.48 -53.4829 3.3203
4868.38 -56.8808 5.64492
4871.28 -59.417 2.9742
4874.18 -66.9147 4.00651
4877.08 -69.8196 4.75352
4879.98 -72.4213 1.32137
4882.88 -112.68 2.38928
4885.78 -74.9893 0.634156
4888.68 -71.2699 5.03833
4891.58 -69.2186 5.65956
4894.48 -104.271 8.1894
4897.38 -104.577 2.83301
4900.28 -104.543 6.29736
4903.18 -152.933 3.60336
4906.08 -110.436 2.03018
4908.98 -152.757 5.33715
4911.87 -105.237 3.03904
4914.77 -103.233 4.16044
4917.67 -101.614 2.61148
4920.57 -93.9197 2.19794
4923.47 -91.1314 2.52189
4926.37 -98.367 4.68267
4929.27 -102.637 2.50031
4932.17 -145.109 3.611
4935.07 -100.588 0.908534
4937.97 -92.8756 2.36113
4940.86 -136.618 2.78908
4943.76 -146.728 6.27608
4946.66 -147.658 2.64831
4949.56 -101.661 2.63471
4952.46 -99.2637 1.01046
4955.36 -102.955 0.59149
4958.25 -95.9375 0.937314
4961.15 -96.225 0.0993234
4964.05 -97.3291 4.74569
4966.95 -145.027 3.67051
4969.85 -101.333 3.92218
4972.74 -103.286 2.86779
4975.64 -145.984 2.33642
4978.54 -142.087 4.23286
4981.44 -97.2903 -0.119101
4984.33 -91.7594 2.47562
4987.23 -93.3948 -1.15665
4990.13 -93.4409 2.70057
4993.03 -98.3568 -0.449043
4995.92 -138.542 3.64019
4998.82 -98.8151 3.98665
5001.72 -97.9046 2.862
5004.61 -92.7282 2.51801
5007.51 -95.7637 3.41179
5010.41 -133.428 0.50433
5013.3 -133.442 2.60298
5016.2 -90.9943 -2.08973
5019.1 -90.2391 1.52795
5021.99 -94.603 2.29499
5024.89 -91.7808 6.99926
5027.79 -96.8012 4.28555
5030.68 -97.6784 2.63129
5033.58 -94.5652 -0.100255
5036.48 -110.597 2.9332
5039.37 -118.082 1.93123
5042.27 -99.5278 0.413086
5045.16 -96.2136 -0.983322
5048.06 -94.8522 1.70843
5050.96 -96.8504 -1.8455
5053.85 -99.9793 1.98158
5056.75 -143.084 3.77396
5059.64 -103.317 2.27274
5062.54 -100.011 2.84686
5065.43 -102.938 1.75609
5068.33 -96.8052 1.72691
5071.22 -98.1177 1.5522
5074.12 -100.416 1.42524
5077.01 -96.2256 1.30204
5079.91 -138.308 0.425058
5082.8 -93.9023 0.379153
5085.7 -91.7273 1.64069
5088.59 -93.3349 0.43015
5091.49 -97.2929 2.79615
5094.38 -100.041 2.74369
5097.28 -99.7564 3.48226
5100.17 -94.544 4.16616
5103.06 -94.9706 -1.06815
5105.96 -88.7302 0.870315
5108.85 -97.6245 2.41848
5111.75 -93.079 4.5345
5114.64 -96.3815 3.2937
5117.53 -98.9114 2.75825
5120.43 -102.461 5.20848
5123.32 -96.6619 0.745724
5126.22 -140.343 2.10978
5129.11 -87.966 3.27908
5132 -94.2998 1.42017
5134.9 -95.4637 -0.512298
5137.79 -93.2927 2.07391
5140.68 -90.1274 0.796989
5143.58 -91.6393 2.25273
5146.47 -94.8344 2.25764
5149.36 -90.7658 3.90679
5152.25 -92.8423 2.59094
5155.15 -92.4889 1.45469
5158.04 -97.5654 4.81234
5160.93 -100.223 4.14687
5163.83 -97.0195 3.21154
5166.72 -121.21 4.26004
5169.61 -78.4208 2.37653
5172.5 -74.5403 1.75325
5175.39 -77.7621 3.65064
5178.29 -86.1299 3.62293
5181.18 -83.1504 1.47164
5184.07 -78.4469 2.49512
5186.96 -79.1712 0.434797
5189.85 -84.1007 -1.07456
5192.75 -92.6918 3.43757
5195.64 -90.4021 4.24303
5198.53 -95.7631 3.83938
5201.42 -100.091 4.71845
5204.31 -90.5396 5.92582
5207.2 -91.3794 2.86696
5210.09 -97.2599 4.55492
5212.99 -144.635 2.77304
5215.88 -102.053 4.58061
5218.77 -99.8412 2.81036
5221.66 -108.721 3.22017
5224.55 -152.76 4.24586
5227.44 -149.048 4.39369
5230.33 -99.407 -1.58367
5233.22 -146.462 0.0968884
5236.11 -104.071 0.406308
5239 -153.395 2.32807
5241.89 -108.26 2.45417
5244.78 -110.189 5.40875
5247.67 -109.247 2.31117
5250.56 -110.584 3.51407
5253.45 -105.272 2.13865
5256.34 -147.962 3.40054
5259.23 -155.648 3.30567
5262.12 -108.157 -0.29003
5265.01 -99.2096 3.44923
5267.9 -95.695 5.60625
5270.79 -97.046 2.56307
5273.68 -93.9017 6.85882
5276.57 -105.127 4.64363
5279.46 -104.181 6.31942
5282.35 -102.099 2.94633
5285.23 -103.088 4.9308
5288.12 -158.048 5.13437
5291.01 -110.46 3.15249
5293.9 -157.492 6.62526
5296.79 -111.336 7.95578
5299.68 -110.696 4.96791
5302.57 -109.474 4.33034
5305.45 -156.843 0.532208
5308.34 -112.187 0.123743
5311.23 -162.354 0.556843
5314.12 -113.225 -9.36015
5317.01 -113.008 -12.2432
5319.89 -107.552 -12.6867
5322.78 -108.415 -6.16547
5325.67 -101.526 0.171601
5328.56 -148.669 -10.924
5331.45 -101.735 -16.4874
5334.33 -147.872 -14.6713
5337.22 -106.888 -18.4399
5340.11 -101.832 -12.9093
5342.99 -100.631 -12.2573
5345.88 -149.481 -14.4102
5348.77 -148.255 -12.4416
5351.65 -151.194 -14.0968
5354.54 -157.911 -15.9256
5357.43 -113.687 -15.573
5360.31 -113.453 -10.9459
5363.2 -111.28 0.112117
5366.09 -157.676 10.111
5368.97 -103.761 4.48278
5371.86 -102.933 4.10099
5374.75 -147.976 5.45857
5377.63 -102.869 5.55079
5380.52 -105.408 5.69812
5383.4 -113.176 2.13828
5386.29 -112.214 4.35786
5389.17 -107.663 7.0923
5392.06 -105.901 1.86329
5394.95 -105.671 -0.436568
5397.83 -147.853 3.01639
5400.72 -100.982 1.58979
5403.6 -102.779 1.91058
5406.49 -101.608 1.49868
5409.37 -93.1171 2.96474
5412.26 -99.3476 4.6332
5415.14 -102.473 5.19224
5418.03 -107.012 1.28279
5420.91 -102.877 4.99564
5423.79 -101.566 4.07907
5426.68 -104.922 4.18802
5429.56 -107.825 2.88089
5432.45 -104.675 4.96405
5435.33 -100.24 1.71535
5438.22 -106.429 5.36477
5441.1 -157.134 3.47542
5443.98 -105.023 -0.928769
5446.87 -101.401 0.598439
5449.75 -108.228 2.44609
5452.63 -104.364 -0.914442
5455.52 -148.262 8.459
5458.4 -101.762 1.91291
5461.28 -109.943 3.69544
5464.17 -103.345 -0.330971
5467.05 -101.495 6.88641
5469.93 -110.346 3.82721
5472.82 -105.979 4.32901
5475.7 -105.525 5.05416
5478.58 -98.5159 5.83535
5481.46 -104.459 5.52873
5484.35 -152.131 4.05832
5487.23 -104.964 1.96929
5490.11 -108.139 1.23169
5492.99 -103.064 3.54828
5495.87 -106.248 2.19571
5498.76 -108.191 6.93658
5501.64 -106.437 6.57438
5504.52 -152.041 1.45273
5507.4 -101.052 -0.0717606
5510.28 -104.241 2.55588
5513.17 -102.574 5.76673
5516.05 -154.739 5.7394
5518.93 -104.667 2.53984
5521.81 -108.36 2.98124
5524.69 -108.136 5.85924
5527.57 -102.814 5.20042
5530.45 -105.688 2.97842
5533.33 -107.428 6.00176
5536.21 -104.806 4.8705
5539.09 -105.368 4.37811
5541.97 -105.638 3.66332
5544.85 -103.099 6.9088
5547.73 -104.167 2.65734
5550.61 -102.965 2.19628
5553.49 -104.286 3.75646
5556.37 -105.882 3.94778
5559.25 -149.603 2.9321
5562.13 -147.63 6.53771
5565.01 -104.616 1.91277
5567.89 -102.176 4.52636
5570.77 -100.529 13.2005
5573.65 -153.698 29.3683
5576.53 -158.819 47.836
5579.41 -100.093 34.1351
5582.29 -100.802 0.101045
5585.17 -150.599 -15.1771
5588.05 -95.8877 -21.9629
5590.93 -99.3664 -19.5713
5593.8 -94.8731 -9.66118
5596.68 -143.03 -7.70827
5599.56 -98.4138 -6.99189
5602.44 -99.3768 -5.76396
5605.32 -94.9701 -1.48296
5608.2 -103.116 -0.961223
5611.07 -102.935 3.44061
5613.95 -101.346 2.3148
5616.83 -98.8637 4.03102
5619.71 -99.6261 0.574358
5622.58 -101.213 4.21866
5625.46 -101.131 5.25979
5628.34 -104.136 4.78957
5631.22 -105.171 9.53939
5634.09 -146.327 5.4663
5636.97 -141.637 7.09854
5639.85 -100.51 8.26064
5642.72 -103.233 3.64566
5645.6 -102.412 7.94695
5648.48 -109.22 7.99058
5651.35 -102.406 5.53229
5654.23 -99.7479 4.64769
5657.11 -100.106 10.669
5659.98 -94.1789 11.7786
5662.86 -96.3482 8.81861
5665.73 -99.9669 5.52081
5668.61 -138.167 7.36344
5671.49 -100.433 7.6582
5674.36 -143.062 8.51801
5677.24 -101.778 6.12012
5680.11 -100.436 7.67964
5682.99 -101.423 5.25553
5685.86 -102.994 8.53107
5688.74 -97.946 7.50546
5691.61 -97.3933 4.6876
5694.49 -100.329 4.93088
5697.36 -142.282 8.7081
5700.24 -140.553 5.84098
5703.11 -100.542 6.74905
5705.99 -138.922 6.04913
5708.86 -91.6945 4.62581
5711.74 -92.9368 5.36639
5714.61 -95.3937 7.84643
5717.48 -95.221 7.68699
5720.36 -99.7836 10.1348
5723.23 -140.84 9.52599
5726.1 -101.131 6.40168
5728.98 -96.8361 9.75071
5731.85 -98.9077 6.29499
5734.73 -97.5991 6.2171
5737.6 -102.879 4.55526
5740.47 -98.2499 9.45563
5743.34 -98.0977 10.0531
5746.22 -100.692 4.60951
5749.09 -101.11 7.26986
5751.96 -98.075 8.86931
5754.84 -100.584 9.56112
5757.71 -97.7651 7.75829
5760.58 -96.4279 5.83925
5763.45 -93.9323 6.24462
5766.32 -94.9651 9.44258
5769.2 -97.1506 10.9759
5772.07 -97.9489 10.5389
5774.94 -96.0776 5.84859
5777.81 -96.5822 6.4169
5780.68 -96.8375 6.80297
5783.56 -93.7003 10.5473
5786.43 -95.6255 8.72159
5789.3 -97.8669 9.78056
5792.17 -134.239 9.75317
5795.04 -94.9967 6.86436
5797.91 -97.7505 9.17513
5800.78 -98.2642 10.0667
5803.65 -140.524 7.79233
5806.52 -93.9802 8.03786
5809.39 -134.024 7.50312
5812.26 -96.4085 9.21231
5815.13 -98.6838 8.28067
5818 -141.84 6.92988
5820.87 -98.6079 6.61681
5823.74 -95.7249 10.3426
5826.61 -99.5067 9.25582
5829.48 -137.637 6.69284
5832.35 -98.5423 11.4154
5835.22 -97.9829 7.99121
5838.09 -139.005 5.16748
5840.96 -94.6529 7.35171
5843.83 -99.1959 10.8231
5846.7 -140.841 7.78597
5849.57 -97.926 8.69384
5852.44 -98.3619 10.3396
5855.3 -92.4787 8.6037
5858.17 -89.8055 10.0636
5861.04 -120.863 9.66643
5863.91 -115.292 12.1899
5866.78 -119.54 10.4762
5869.65 -121.969 11.2199
5872.51 -115.678 9.90005
5875.38 -117.647 7.65779
5878.25 -118.418 8.62568
5881.12 -118.946 10.4082
5883.98 -115.234 16.9487
5886.85 -110.072 23.2201
5889.72 -104.621 32.0542
5892.59 -106.002 27.7189
5895.45 -102.599 21.4996
5898.32 -102.257 11.6992
5901.19 -111.911 0.273816
5904.05 -106.198 -1.2348
5906.92 -114.865 -4.38054
5909.79 -116.063 -3.26816
5912.65 -115.123 -2.84463
5915.52 -115.371 0.638866
5918.38 -114.227 -1.45661
5921.25 -113.483 3.77204
5924.12 -115.78 5.53756
5926.98 -119.184 8.81896
5929.85 -117.254 11.022
5932.71 -114.163 12.5862
5935.58 -119.34 9.97661
5938.44 -117.705 5.42074
5941.31 -114.44 6.04931
5944.17 -114.391 11.2311
5947.04 -112.252 9.8083
5949.9 -114.73 8.71529
5952.77 -116.752 9.35745
5955.63 -116.61 11.8429
5958.5 -118.186 7.56702
5961.36 -113.981 7.57821
5964.22 -114.982 5.63934
5967.09 -113.723 9.59023
5969.95 -115.409 9.27802
5972.82 -115.764 14.4378
5975.68 -114.646 11.1845
5978.54 -112.767 8.48798
5981.41 -117.389 6.85894
5984.27 -113.481 5.98421
5987.13 -110.636 10.4171
5990 -112.43 9.22931
5992.86 -113.67 11.1682
5995.72 -111.002 8.10411
5998.58 -112.426 7.67762
6001.45 -114.122 8.53348
6004.31 -112.499 10.7816
6007.17 -111.765 7.14714
6010.03 -108.713 9.78408
6012.89 -112.83 8.44095
6015.76 -111.796 7.93672
6018.62 -107.74 11.0336
6021.48 -108.721 8.49515
6024.34 -105.781 11.0048
6027.2 -105.493 9.58997
6030.06 -111.914 9.65255
6032.93 -106.746 12.4988
6035.79 -115.215 10.5261
6038.65 -113.874 10.0305
6041.51 -110.823 9.7375
6044.37 -115.413 8.27
6047.23 -112.755 10.3082
6050.09 -114.504 9.54914
6052.95 -113.51 10.6515
6055.81 -104.98 7.32285
6058.67 -107.733 10.6417
6061.53 -113.09 11.7727
6064.39 -110.146 10.4652
6067.25 -108.005 10.4666
6070.11 -112.356 11.7288
6072.97 -111.796 7.30589
6075.83 -113.184 11.3372
6078.69 -118.915 8.42678
6081.55 -94.4367 10.2699
6084.4 -109.874 14.2822
6087.26 -112.718 11.1803
6090.12 -109.158 11.3234
6092.98 -108.878 12.1249
6095.84 -109.469 13.241
6098.7 -109.159 11.105
6101.55 -109.679 14.0885
6104.41 -104.285 11.2209
6107.27 -109.687 13.6098
6110.13 -106.716 14.0118
6112.99 -110.322 11.3654
6115.84 -109.059 9.90145
6118.7 -108.439 13.3636
6121.56 -108.762 15.9864
6124.42 -107.989 12.8859
6127.27 -104.489 9.33738
6130.13 -104.963 9.50925
6132.99 -103.979 11.0871
6135.84 -103.641 10.8444
6138.7 -106.738 16.5254
6141.55 -104.971 14.3926
6144.41 -103.8 13.9786
6147.27 -105.946 14.0776
6150.12 -105.096 14.4532
6152.98 -104.95 10.0498
6155.83 -105.974 14.4339
6158.69 -101.89 8.22048
6161.55 -98.8264 9.65125
6164.4 -98.9889 15.5709
6167.26 -99.6905 13.6085
6170.11 -97.7728 16.0926
6172.97 -97.0799 13.2895
6175.82 -102.089 15.2337
6178.67 -103.828 13.3841
6181.53 -105.408 11.1529
6184.38 -101.52 12.5265
6187.24 -102.58 12.2071
6190.09 -103.981 10.0595
6192.95 -102.035 8.78586
6195.8 -103.857 14.3875
6198.65 -103.629 13.3409
6201.51 -108.81 14.145
6204.36 -105.28 13.9908
6207.21 -111.569 15.7033
6210.07 -107.258 11.4634
6212.92 -103.783 16.9223
6215.77 -107.859 14.6493
6218.63 -108.675 10.9811
6221.48 -106.093 16.1834
6224.33 -109.651 12.2322
6227.18 -105.739 15.5399
6230.03 -106.89 16.683
6232.89 -103.192 20.7755
6235.74 -110.244 23.0355
6238.59 -109.22 20.2673
6241.44 -112.621 17.0914
6244.29 -110.178 14.1955
6247.15 -109.871 11.6224
6250 -108.331 11.0265
6252.85 -107.235 12.9137
6255.7 -103.043 14.301
6258.55 -108.798 11.7144
6261.4 -108.587 16.7658
6264.25 -111.586 15.8904
6267.1 -109.395 12.8965
6269.95 -107.984 15.2724
6272.8 -112.794 15.7292
6275.65 -106.914 12.1717
6278.5 -109.015 10.4173
6281.35 -107.918 14.0601
6284.2 -107.67 17.4284
6287.05 -111.734 17.9536
6289.9 -108.745 14.3869
6292.75 -109.25 38.9221
6295.6 -105.468 68.5239
6298.45 -102.895 105.033
6301.3 -95.4625 88.9384
6304.14 -106.821 41.1424
6306.99 -103.582 -3.35412
6309.84 -102.634 -22.0391
6312.69 -103.106 -36.8339
6315.54 -108.129 -40.6988
6318.39 -104.879 -31.4458
6321.23 -103.818 -14.7351
6324.08 -105.093 -6.12374
6326.93 -110.057 6.09457
6329.78 -107.9 8.84353
6332.62 -105.472 9.66226
6335.47 -112.813 9.30142
6338.32 -108.037 12.009
6341.16 -109.987 21.2974
6344.01 -107.683 14.3673
6346.86 -105.641 17.6795
6349.7 -107.232 18.1911
6352.55 -108.421 24.6359
6355.4 -109.356 20.5272
6358.24 -104.612 36.59
6361.09 -102.291 41.9598
6363.93 -102.744 41.5155
6366.78 -107.259 21.3521
6369.63 -108.55 11.3669
6372.47 -105.922 4.89352
6375.32 -109.21 5.85328
6378.16 -108.461 6.33829
6381.01 -111.156 6.36995
6383.85 -107.621 6.29769
6386.69 -108.704 13.2985
6389.54 -109.261 15.6815
6392.38 -106.6 15.9579
6395.23 -106.682 16.5138
6398.07 -109.01 19.4284
6400.92 -107.235 23.8599
6403.76 -108.568 22.0565
6406.6 -106.164 18.384
6409.45 -104.335 17.378
6412.29 -103.28 18.3157
6415.13 -104.97 20.3619
6417.98 -106.452 17.6122
6420.82 -104.668 18.5103
6423.66 -106.091 24.6058
6426.5 -105.228 19.0352
6429.35 -107.78 19.0087
6432.19 -105.543 22.0598
6435.03 -102.054 21.5974
6437.87 -107.534 24.4898
6440.72 -102.479 22.4721
6443.56 -106.565 23.3718
6446.4 -106.145 26.4018
6449.24 -109.234 20.4082
6452.08 -100.313 20.2547
6454.92 -103.494 23.1477
6457.76 -100.533 25.5108
6460.6 -98.4019 21.8163
6463.44 -100.576 29.9749
6466.29 -101.009 29.1979
6469.13 -104.112 27.5793
6471.97 -101.519 22.0809
6474.81 -102.227 21.3581
6477.65 -105.152 19.1042
6480.49 -102.954 19.1758
6483.33 -103.297 17.9865
6486.17 -104.394 18.6248
6489 -104.219 20.7811
6491.84 -102.386 22.54
6494.68 -95.4483 33.3263
6497.52 -95.5276 30.4934
6500.36 -98.0506 33.205
6503.2 -99.2032 26.8837
6506.04 -99.2991 25.45
6508.88 -100.572 20.8595
6511.71 -101.664 13.2348
6514.55 -106.13 15.2199
6517.39 -100.651 22.1919
6520.23 -101.596 25.5058
6523.07 -102.556 25.886
6525.9 -100.867 25.5178
6528.74 -99.529 31.9477
6531.58 -105.827 26.4998
6534.41 -100.391 26.8256
6537.25 -97.6538 26.3544
6540.09 -99.6759 25.2545
6542.92 -101.377 26.0464
6545.76 -104.759 27.7448
6548.6 -95.3891 26.9405
6551.43 -94.172 27.6058
6554.27 -88.1944 29.1627
6557.11 -80.0555 25.2264
6559.94 -67.298 21.4646
6562.78 -55.4953 23.245
6565.61 -60.922 21.319
6568.45 -68.4933 20.2599
6571.28 -79.2892 26.8586
6574.12 -78.1112 24.9988
6576.95 -89.6552 28.1026
6579.79 -91.8736 25.0524
6582.62 -94.9283 21.1743
6585.46 -97.4312 24.1305
6588.29 -96.1497 26.0939
6591.12 -94.2113 24.5773
6593.96 -103.115 28.0929
6596.79 -97.5415 34.5172
6599.62 -98.3926 29.9142
6602.46 -96.923 27.4426
6605.29 -97.5176 28.6474
6608.12 -98.5654 31.0001
6610.96 -98.4983 25.6048
6613.79 -97.0912 29.3703
6616.62 -97.0336 27.343
6619.45 -100.794 25.3741
6622.29 -97.0034 32.0706
6625.12 -97.0318 30.6297
6627.95 -100.579 34.8834
6630.78 -97.3458 34.2071
6633.61 -94.7253 34.8823
6636.45 -93.4686 33.527
6639.28 -95.6857 30.615
6642.11 -95.4181 27.365
6644.94 -95.0137 30.696
6647.77 -97.694 29.429
6650.6 -97.5377 35.0442
6653.43 -99.3887 33.6497
6656.26 -95.2497 34.9755
6659.09 -95.8958 36.3447
6661.92 -95.3246 34.6329
6664.75 -94.0895 31.8418
6667.58 -93.1879 38.7903
6670.41 -92.776 37.5893
6673.24 -93.8982 42.0789
6676.07 -94.7483 40.1375
6678.9 -92.8352 41.2033
6681.73 -96.1528 42.2943
6684.56 -95.6393 37.4073
6687.39 -90.3858 34.1073
6690.22 -94.9882 37.431
6693.04 -91.5721 39.9705
6695.87 -94.4245 35.2873
6698.7 -111.731 38.8566
6701.53 -115.637 37.4842
6704.36 -113.532 38.0202
6707.18 -115.328 40.7841
6710.01 -112.423 42.4654
6712.84 -113.417 39.1791
6715.67 -108.682 39.647
6718.49 -109.713 43.3866
6721.32 -110.568 35.058
6724.15 -109.515 38.9496
6726.97 -114.394 35.9563
6729.8 -112.132 37.881
6732.62 -113.79 40.9906
6735.45 -111.789 41.4577
6738.28 -113.025 41.3475
6741.1 -107.639 42.4407
6743.93 -109.83 41.1367
6746.75 -108.801 41.0103
6749.58 -108.463 44.5941
6752.4 -105.648 41.1585
6755.23 -106.321 43.8986
6758.05 -104.975 40.7382
6760.88 -110.144 44.5679
6763.7 -109.596 42.2579
6766.53 -108.75 40.6276
6769.35 -104.719 42.5434
6772.17 -106.196 48.4189
6775 -107.756 47.2133
6777.82 -111.71 45.6585
6780.64 -106.905 42.6734
6783.47 -107.066 40.8901
6786.29 -107.804 44.979
6789.11 -108.361 49.0202
6791.94 -109.097 44.3138
6794.76 -106.093 45.3827
6797.58 -103.09 44.773
6800.4 -105.738 46.7523
6803.23 -110.093 45.7347
6806.05 -105.165 45.1718
6808.87 -108.553 50.3972
6811.69 -101.636 47.0954
6814.51 -103.276 46.0806
6817.33 -104.302 45.9649
6820.16 -107.319 45.9407
6822.98 -101.254 49.6497
6825.8 -102.27 51.4696
6828.62 -102.731 58.822
6831.44 -104.469 54.2963
6834.26 -100.513 42.3714
6837.08 -99.9569 39.4526
6839.9 -99.3003 47.2993
6842.72 -101.043 36.8538
6845.54 -96.5565 44.1818
6848.36 -101.634 44.5769
6851.18 -100.992 45.595
6854 -99.7709 47.9365
6856.82 -105.556 55.2853
6859.63 -100.156 60.2368
6862.45 -97.9174 55.8499
6865.27 -91.9092 43.6468
6868.09 -78.0474 31.4832
6870.91 -77.6933 33.256
6873.73 -77.848 39.2931
6876.54 -78.5622 42.065
6879.36 -84.314 45.3596
6882.18 -82.653 44.0988
6885 -85.086 47.621
6887.81 -83.2689 46.2982
6890.63 -84.3423 46.0401
6893.45 -84.7356 44.1298
6896.26 -81.3105 51.1601
6899.08 -86.5848 52.4405
6901.9 -88.2701 51.1396
6904.71 -91.4682 50.0307
6907.53 -91.4582 54.7439
6910.34 -87.7582 51.1907
6913.16 -88.5365 48.4433
6915.98 -93.2058 54.1256
6918.79 -90.3855 57.9965
6921.61 -95.647 60.4405
6924.42 -93.2533 50.5953
6927.24 -95.3148 56.4288
6930.05 -96.5739 61.6097
6932.86 -95.106 59.3043
6935.68 -96.5453 64.6551
6938.49 -93.5423 62.0375
6941.31 -96.302 66.5702
6944.12 -100.208 64.1443
6946.93 -97.2504 58.1632
6949.75 -96.5106 63.0972
6952.56 -101.274 61.8956
6955.37 -95.4787 68.4935
6958.19 -93.2383 67.4139
6961 -99.6089 61.8307
6963.81 -100.385 61.8852
6966.62 -95.2968 58.96
6969.44 -96.2782 56.3099
6972.25 -102.358 58.2092
6975.06 -97.694 55.8931
6977.87 -95.3629 62.3914
6980.68 -98.3664 55.8971
6983.5 -98.5964 54.4952
6986.31 -99.4015 61.4176
6989.12 -100.427 62.9057
6991.93 -100.205 62.0231
6994.74 -94.5477 67.4365
6997.55 -99.0326 61.0093
7000.36 -95.5203 63.5489
7003.17 -91.9371 61.8249
7005.98 -95.2758 63.6837
7008.79 -93.9105 68.2682
7011.6 -94.9707 61.9742
7014.41 -98.5988 65.3175
7017.22 -92.2187 64.4319
7020.03 -97.0017 71.693
7022.84 -90.8822 66.6355
7025.64 -94.7478 64.6231
7028.45 -92.58 69.2114
7031.26 -94.4714 65.295
7034.07 -95.2302 74.1556
7036.88 -93.5668 68.3925
7039.69 -95.5099 72.5575
7042.49 -98.7987 70.5241
7045.3 -93.7711 67.1188
7048.11 -91.8789 73.2422
7050.92 -91.3 72.4892
7053.72 -90.7803 68.2288
7056.53 -95.1761 68.1487
7059.34 -90.402 69.029
7062.14 -97.0975 78.1343
7064.95 -92.1676 77.3019
7067.75 -94.2563 82.8728
7070.56 -91.6307 82.7839
7073.37 -92.402 86.0957
7076.17 -93.0955 82.5744
7078.98 -93.831 87.0117
7081.78 -94.7903 84.926
7084.59 -94.294 84.9591
7087.39 -94.674 91.9543
7090.2 -91.0882 89.5818
7093 -92.928 84.8946
7095.81 -91.2298 85.7586
7098.61 -93.2395 92.369
7101.41 -93.695 87.7774
7104.22 -96.2384 95.5038
7107.02 -92.3961 92.5667
7109.82 -94.1782 91.2732
7112.63 -92.1023 97.1839
7115.43 -92.9628 94.0268
7118.23 -91.3096 100.618
7121.04 -92.622 99.2613
7123.84 -91.5611 90.9575
7126.64 -93.9632 98.8233
7129.44 -91.5678 90.7662
7132.24 -92.9037 98.7092
7135.05 -89.3044 99.9581
7137.85 -96.7393 106.172
7140.65 -90.1576 95.9368
7143.45 -93.0614 103.152
7146.25 -89.5889 98.9971
7149.05 -89.1036 102.826
7151.85 -95.5128 105.155
7154.65 -94.4384 103.517
7157.45 -96.3235 105.483
7160.25 -93.9755 107.113
7163.05 -92.1392 109.801
7165.85 -88.3858 104.627
7168.65 -94.5928 105.385
7171.45 -92.9644 102.146
7174.25 -94.1445 101.69
7177.05 -92.3194 101.269
7179.85 -92.7322 107.708
7182.65 -88.712 103.36
7185.45 -83.5581 96.2546
7188.25 -83.7137 111.498
7191.04 -86.7838 103.552
7193.84 -87.3439 113.285
7196.64 -88.1384 112.73
7199.44 -85.0722 110.831
7202.23 -88.3589 115.816
7205.03 -83.164 114.032
7207.83 -87.2835 119.145
7210.63 -85.9407 115.996
7213.42 -89.7769 122.986
7216.22 -95.4432 112.351
7219.01 -90.6152 116.655
7221.81 -91.773 117.688
7224.61 -90.382 119.6
7227.4 -92.6233 108.209
7230.2 -90.6564 106.538
7232.99 -84.0401 96.4391
7235.79 -89.4294 102.298
7238.58 -82.8182 111.241
7241.38 -93.6837 129.785
7244.17 -83.9356 136.508
7246.97 -90.2635 138.153
7249.76 -88.1216 138.641
7252.55 -90.0708 132.767
7255.35 -90.05 122.312
7258.14 -88.7835 136.182
7260.94 -89.182 126.291
7263.73 -85.9463 127.907
7266.52 -86.454 103.766
7269.32 -85.241 106.72
7272.11 -80.2693 117.718
7274.9 -80.2895 132.807
7277.69 -82.6246 144.44
7280.48 -88.8972 149.259
7283.28 -89.0423 148.856
7286.07 -84.2758 149.011
7288.86 -86.2676 142.194
7291.65 -82.8551 140.259
7294.44 -86.5127 146.81
7297.23 -82.8202 143.79
7300.02 -83.7519 136.011
7302.81 -86.2268 141.671
7305.61 -89.0077 135.628
7308.4 -88.0741 122.864
7311.19 -85.1342 141.935
7313.98 -83.5878 153.735
7316.77 -84.9646 158.48
7319.55 -87.125 162.875
7322.34 -89.6539 167.118
7325.13 -85.9093 161.32
7327.92 -86.2726 145.732
7330.71 -92.6628 138.592
7333.5 -85.7214 142.697
7336.29 -90.0857 150.755
7339.08 -86.5526 171.718
7341.86 -89.8622 185.779
7344.65 -92.5883 193.816
7347.44 -92.4967 165.987
7350.23 -91.4945 162.81
7353.01 -89.0101 166.828
7355.8 -88.6634 160.445
7358.59 -91.4959 173.251
7361.37 -88.2495 169.494
7364.16 -85.2926 162.134
7366.95 -86.1964 184.268
7369.73 -85.1511 187.895
7372.52 -87.0833 195.801
7375.3 -88.5722 189.256
7378.09 -88.2143 182.923
7380.87 -87.1434 174.801
7383.66 -89.0789 183.497
7386.44 -86.8458 173.619
7389.23 -81.5475 170.592
7392.01 -81.0042 172.495
7394.8 -84.7059 167.757
7397.58 -84.1307 182.063
7400.36 -89.0846 194.819
7403.15 -83.6741 192.548
7405.93 -90.5633 193.5
7408.72 -87.024 184.839
7411.5 -83.8108 187.718
7414.28 -83.7587 186.365
7417.06 -86.7154 186.923
7419.85 -84.2105 196.388
7422.63 -84.088 185.693
7425.41 -86.8259 197.456
7428.19 -83.9457 196.165
7430.97 -83.0616 206.377
7433.76 -89.6602 195.13
7436.54 -83.8518 199.837
7439.32 -91.4044 214.418
7442.1 -84.7567 213.759
7444.88 -87.1827 203.342
7447.66 -81.4376 205.802
7450.44 -86.5537 197.143
7453.22 -87.436 200.448
7456 -87.7436 205.232
7458.78 -88.7844 202.556
7461.56 -86.8963 186.629
7464.34 -84.9823 205.392
7467.12 -87.666 211.623
7469.9 -85.1656 213.5
7472.68 -86.0561 213.946
7475.45 -86.1545 222.926
7478.23 -83.004 222.245
7481.01 -85.949 240.537
7483.79 -88.6528 233.231
7486.57 -89.4402 233.931
7489.34 -100.718 230.064
7492.12 -102.696 226.839
7494.9 -96.818 230.601
7497.67 -93.9666 218.829
7500.45 -97.8454 221.706
7503.23 -95.736 222.736
7506 -98.0346 209.297
7508.78 -96.2158 213.359
7511.56 -95.6024 209.761
7514.33 -94.1279 210.332
7517.11 -91.2393 210.831
7519.88 -98.0127 241.183
7522.66 -95.5281 238.101
7525.43 -92.6442 244.053
7528.21 -90.4611 240.378
7530.98 -90.2053 245.66
7533.76 -96.1776 254.935
7536.53 -95.5362 231.111
7539.3 -93.0522 232.739
7542.08 -93.5806 227.725
7544.85 -92.6614 229.115
7547.62 -91.1846 226.676
7550.4 -87.6246 223.274
7553.17 -92.0844 227.044
7555.94 -89.3075 225.823
7558.72 -90.8774 226.984
7561.49 -89.0732 230.295
7564.26 -89.5662 218.663
7567.03 -91.3026 237.859
7569.8 -87.7008 246.894
7572.57 -86.6932 238.849
7575.35 -86.488 240.842
7578.12 -89.3422 245.321
7580.89 -85.2673 236.232
7583.66 -86.9595 243.49
7586.43 -80.6979 224.961
7589.2 -81.4195 220.002
7591.97 -74.2555 193.572
7594.74 -62.4578 149.67
7597.51 -46.3832 103.894
7600.28 -30.9884 78.5941
7603.05 -23.0829 62.1471
7605.81 -20.6048 58.5397
7608.58 -21.236 63.2647
7611.35 -25.6564 83.8701
7614.12 -36.9622 123.913
7616.89 -47.5705 155.61
7619.66 -54.4551 165.309
7622.42 -54.2476 142.491
7625.19 -44.1238 135.086
7627.96 -45.0571 123.347
7630.73 -42.3592 129.894
7633.49 -41.4404 121.244
7636.26 -43.5581 138.429
7639.03 -46.3482 138.013
7641.79 -48.5297 148.986
7644.56 -49.9027 159.1
7647.32 -56.4423 162.148
7650.09 -56.8017 176.57
7652.85 -60.7192 189.171
7655.62 -64.0452 203.743
7658.38 -63.2559 211.804
7661.15 -67.0171 215.14
7663.91 -69.5155 228.574
7666.68 -68.7466 232.674
7669.44 -71.1436 241.081
7672.21 -72.646 255.54
7674.97 -77.1651 248.951
7677.73 -81.395 255.511
7680.5 -78.2635 244.957
7683.26 -83.6861 279.141
7686.02 -81.6827 257.783
7688.79 -84.8954 273.603
7691.55 -79.1517 269.407
7694.31 -83.9426 263.201
7697.07 -80.4306 254.3
7699.83 -82.6859 258.074
7702.59 -85.698 251.09
7705.36 -85.6583 247.61
7708.12 -86.6821 263.445
7710.88 -83.7558 291.05
7713.64 -87.5443 332.007
7716.4 -86.9405 338.342
7719.16 -86.4945 344.422
7721.92 -85.9821 310.753
7724.68 -88.4872 327.843
7727.44 -87.9833 307.583
7730.2 -84.688 293.199
7732.96 -90.9037 297.62
7735.72 -86.3349 279.033
7738.48 -85.926 273.383
7741.23 -82.1451 254.185
7743.99 -80.6359 282.671
7746.75 -77.633 296.352
7749.51 -87.2234 318.56
7752.27 -83.8932 348.879
7755.02 -88.6756 345.831
7757.78 -83.7877 325.806
7760.54 -83.5331 331.546
7763.29 -88.2924 329.739
7766.05 -82.2066 319.117
7768.81 -81.2082 314.128
7771.56 -82.0663 313.793
7774.32 -83.4659 311.931
7777.08 -78.7766 294.093
7779.83 -81.5243 303.131
7782.59 -84.8758 300.396
7785.34 -82.1483 294.117
7788.1 -82.8483 293.753
7790.85 -87.319 333.328
7793.61 -84.517 345.213
7796.36 -85.2192 358.964
7799.11 -82.9432 325.724
7801.87 -82.8963 312.198
7804.62 -83.2088 318.678
7807.37 -85.561 320.225
7810.13 -85.9535 304.538
7812.88 -87.7912 320.551
7815.63 -82.8603 310.217
7818.39 -79.9898 363.673
7821.14 -82.9074 385.03
7823.89 -85.9243 378.003
7826.64 -84.8463 363.012
7829.39 -81.1181 339.972
7832.14 -82.4389 323.97
7834.9 -79.8341 308.317
7837.65 -84.2111 310.398
7840.4 -72.8541 298.717
7843.15 -82.373 300.864
7845.9 -85.4008 302.642
7848.65 -76.9623 314.037
7851.4 -75.6341 339.467
7854.15 -78.7917 368.861
7856.9 -80.8389 364.727
7859.65 -78.5916 367.334
7862.4 -75.3454 338.597
7865.14 -81.8711 349.573
7867.89 -81.4765 347.809
7870.64 -80.0079 351.821
7873.39 -80.6141 341.109
7876.14 -77.0954 348.754
7878.88 -84.734 353.25
7881.63 -77.0663 362.785
7884.38 -81.6795 352.503
7887.13 -79.9842 380.472
7889.87 -72.4397 353.759
7892.62 -75.606 338.962
7895.36 -79.3883 347.862
7898.11 -79.4074 330.342
7900.86 -80.4063 328.07
7903.6 -82.1567 294.496
7906.35 -80.1786 306.924
7909.09 -71.5388 331.57
7911.84 -80.6911 370.492
7914.58 -75.2659 396.533
7917.33 -75.7679 390.745
7920.07 -82.5326 383.711
7922.81 -78.037 379.727
7925.56 -73.2423 363.697
7928.3 -80.9726 360.933
7931.05 -80.6241 364.672
7933.79 -77.6399 352.683
7936.53 -77.8829 355.322
7939.27 -76.9937 357.785
7942.02 -74.991 346.1
7944.76 -70.8043 334.555
7947.5 -74.5549 342.485
7950.24 -75.2514 348.327
7952.98 -79.3822 355.547
7955.73 -79.3916 335.497
7958.47 -76.139 330.117
7961.21 -74.4968 366.49
7963.95 -68.3912 392.672
7966.69 -73.7571 393.328
7969.43 -81.6456 394.842
7972.17 -77.8389 377.76
7974.91 -76.0925 367.37
7977.65 -80.5859 358.957
7980.39 -75.2832 369.934
7983.13 -78.2018 365.872
7985.86 -73.0717 346.023
7988.6 -79.3332 395.976
7991.34 -71.8474 397.604
7994.08 -69.5475 434.611
7996.82 -79.5892 425.719
7999.55 -74.9117 399.105
8002.29 -77.8438 377.444
8005.03 -73.2727 363.159
8007.77 -81.085 383.238
8010.5 -81.4655 391.013
8013.24 -79.3355 373.15
8015.98 -80.7515 396.208
8018.71 -79.3801 384.465
8021.45 -77.87 394.817
8024.18 -70.9575 438.552
8026.92 -82.0486 452.299
8029.65 -68.9871 423.833
8032.39 -83.5321 430.01
8035.12 -84.2643 432.339
8037.86 -77.939 412.65
8040.59 -80.095 406.663
8043.32 -83.514 396.299
8046.06 -75.5362 399.627
8048.79 -75.3718 403.081
8051.53 -77.2008 415.416
8054.26 -83.8099 399.9
8056.99 -83.3657 421.536
8059.72 -77.3578 429.071
8062.46 -81.8855 458.452
8065.19 -84.3319 449.176
8067.92 -82.2617 442.207
8070.65 -77.158 412.149
8073.38 -76.5997 437.427
8076.11 -78.5104 438.258
8078.84 -82.9939 417.379
8081.57 -80.4964 427.217
8084.31 -82.1346 426.914
8087.04 -74.4915 405.886
8089.77 -77.1422 419.465
8092.49 -76.6355 414.976
8095.22 -80.833 433.255
8097.95 -76.901 427.44
8100.68 -80.1343 431.913
8103.41 -76.9938 438.421
8106.14 -78.5579 421.543
8108.87 -75.3963 427.768
8111.6 -75.2378 419.035
8114.32 -80.7617 429.068
8117.05 -75.5614 422.14
8119.78 -75.2625 425.056
8122.51 -79.3729 427.573
8125.23 -76.9923 421.153
8127.96 -81.8699 434.609
8130.69 -75.1255 419.531
8133.41 -77.6055 426.352
8136.14 -73.6195 427.175
8138.86 -75.9401 408.747
8141.59 -75.7415 422.996
8144.31 -72.9396 412.026
8147.04 -70.1039 411.281
8149.76 -73.4262 425.748
8152.49 -177.308 979.776
8155.21 -71.3273 410.942
8157.94 -75.8526 411.948
8160.66 -72.4099 397.57
8163.38 -70.6006 396.457
8166.11 -67.2629 390.021
8168.83 -70.6501 386.413
8171.55 -71.6377 404.055
8174.27 -65.9893 396.454
8177 -71.1629 390.804
8179.72 -67.8786 401.663
8182.44 -67.7087 383.664
8185.16 -68.4605 391.462
8187.88 -64.9765 394.295
8190.61 -70.2628 410.609
8193.33 -69.9589 403.966
8196.05 -62.9599 379.197
8198.77 -69.6647 390.478
8201.49 -69.3398 411.23
8204.21 -75.3071 441.631
8206.93 -71.4142 416.78
8209.65 -74.99 445.004
8212.36 -67.4159 412.953
8215.08 -70.7908 413.503
8217.8 -74.464 425.808
8220.52 -73.712 414.418
8223.24 -66.9772 383.483
8225.96 -66.9898 386.247
8228.67 -65.5976 376.649
8231.39 -61.7575 367.28
8234.11 -63.2716 391.153
8236.83 -70.5997 407.211
8239.54 -73.6894 406.634
8242.26 -66.6247 419.621
8244.98 -69.4107 420.878
8247.69 -71.4633 446.23
8250.41 -71.7624 434.913
8253.12 -70.3578 428.76
8255.84 -73.0057 417.707
8258.55 -67.8806 425.673
8261.27 -74.6055 414.627
8263.98 -62.4724 407.535
8266.7 -68.6197 423.011
8269.41 -73.9174 414.091
8272.12 -70.4625 401.205
8274.84 -71.0944 385.976
8277.55 -61.201 370.418
8280.26 -63.0988 384.27
8282.98 -76.0827 396.548
8285.69 -69.8472 383.484
8288.4 -67.9728 388.46
8291.11 -68.3609 382.456
8293.83 -77.9806 391.887
8296.54 -73.151 407.502
8299.25 -70.7958 418.579
8301.96 -74.3118 438.199
8304.67 -78.9539 413.442
8307.38 -70.2239 418.433
8310.09 -74.2442 408.602
8312.8 -79.9237 419.88
8315.51 -76.3947 414.138
8318.22 -81.9307 419.1
8320.93 -78.947 421.574
8323.64 -78.9842 409.732
8326.35 -74.7916 405.899
8329.06 -71.6137 401.044
8331.76 -79.3997 418.702
8334.47 -74.5395 372.811
8337.18 -75.5937 326.134
8339.89 -64.0059 337.746
8342.59 -71.8662 394.72
8345.3 -64.2937 417.603
8348.01 -88.2164 488.076
8350.72 -83.8806 467.444
8353.42 -69.4423 434.485
8356.13 -75.0728 433.824
8358.83 -79.7163 435.094
8361.54 -75.663 417.624
8364.24 -76.3059 408.649
8366.95 -78.3802 424.212
8369.65 -81.0135 434.078
8372.36 -78.536 421.169
8375.06 -80.7627 407.805
8377.77 -71.4601 398.496
8380.47 -81.4853 413.537
8383.17 -73.4984 427.24
8385.88 -77.4916 421.434
8388.58 -76.7009 419.297
8391.28 -75.3539 387.709
8393.99 -74.0655 390.903
8396.69 -75.1652 398.483
8399.39 -75.2708 436.201
8402.09 -77.3071 484.186
8404.79 -79.6451 463.501
8407.49 -74.5593 421.757
8410.19 -76.7075 407.005
8412.9 -78.1857 426.835
8415.6 -74.1274 416.95
8418.3 -72.6135 407.651
8421 -74.4297 403.687
8423.7 -76.2448 390.344
8426.4 -72.8059 367.368
8429.09 -78.3083 397.429
8431.79 -68.9235 411.303
8434.49 -76.4458 441.862
8437.19 -76.5317 431.512
8439.89 -74.3308 419.825
8442.59 -70.3071 413.69
8445.28 -74.4645 411.155
8447.98 -74.0948 394.085
8450.68 -72.9476 422.413
8453.38 -70.9265 405.696
8456.07 -74.6009 431.154
8458.77 -73.4832 389.469
8461.46 -68.0602 378.044
8464.16 -69.8335 392.037
8466.86 -68.9921 419.696
8469.55 -70.003 420.928
8472.25 -74.6225 410.616
8474.94 -73.568 413.832
8477.64 -72.4442 398.769
8480.33 -75.991 402.684
8483.02 -74.9026 402.753
8485.72 -74.0956 413.068
8488.41 -76.5507 413.783
8491.1 -77.4291 398.723
8493.8 -70.2769 393.583
8496.49 -71.6546 372.195
8499.18 -59.8106 354.48
8501.87 -67.9835 394.198
8504.57 -65.6532 400.841
8507.26 -72.8633 396.691
8509.95 -78.6456 413.493
8512.64 -74.8688 394.086
8515.33 -71.4452 395.831
8518.02 -70.7036 395.095
8520.71 -72.5262 390.626
8523.4 -72.6998 393.187
8526.09 -70.5934 383.229
8528.78 -69.3708 378.53
8531.47 -71.8746 406.791
8534.16 -72.2365 402.624
8536.85 -65.5847 384.153
8539.54 -66.4772 364.024
8542.23 -54.441 326.467
8544.91 -51.4283 312.757
8547.6 -55.6102 331.449
8550.29 -64.1063 378.9
8552.98 -67.2192 383.165
8555.66 -67.1393 390.307
8558.35 -68.345 382.266
8561.04 -67.7037 379.909
8563.72 -67.5543 396.609
8566.41 -72.3922 398.526
8569.09 -76.6797 410.852
8571.78 -69.8147 394.444
8574.46 -67.9432 400.394
8577.15 -71.061 397.488
8579.83 -68.2659 379.61
8582.52 -71.65 399.873
8585.2 -69.0178 384.211
8587.89 -69.0641 391.079
8590.57 -72.6893 396.617
8593.25 -66.7402 381.944
8595.94 -67.7094 394.399
8598.62 -65.7756 369.05
8601.3 -66.4619 385.944
8603.98 -67.0804 376.889
8606.66 -72.5365 395.484
8609.35 -68.1752 396.904
8612.03 -67.6325 388.885
8614.71 -69.2827 382.73
8617.39 -70.6562 389.72
8620.07 -71.1082 402.192
8622.75 -62.1354 392.053
8625.43 -73.4279 401.408
8628.11 -75.1571 399.177
8630.79 -70.5517 408.351
8633.47 -66.8558 380.003
8636.15 -68.1391 390.791
8638.83 -72.6103 385.225
8641.5 -69.8378 390.317
8644.18 -75.2723 412.589
8646.86 -66.843 387.233
8649.54 -71.0232 390.93
8652.22 -66.9061 390.59
8654.89 -67.3062 407.736
8657.57 -64.8784 395.205
8660.25 -61.1067 366.467
8662.92 -56.8663 326.745
8665.6 -50.8561 307.597
8668.27 -56.2049 319.718
8670.95 -60.845 344.262
8673.62 -70.2308 365.737
8676.3 -69.4158 383.191
8678.97 -68.2452 372.284
8681.65 -67.6046 370.871
8684.32 -66.2416 377.211
8687 -65.5321 381.417
8689.67 -68.235 369.534
8692.34 -65.1469 361.649
8695.02 -71.8499 387.609
8697.69 -69.8635 368.123
8700.36 -69.0209 389.708
8703.03 -68.5543 383.76
8705.7 -68.4477 388.181
8708.38 -68.6936 390.843
8711.05 -70.9995 383.551
8713.72 -69.9809 399.47
8716.39 -65.249 362.04
8719.06 -65.784 355.502
8721.73 -69.3213 379.317
8724.4 -71.2895 389.075
8727.07 -69.9724 393.702
8729.74 -70.2583 381.487
8732.41 -64.2417 359.464
8735.08 -65.1966 374.872
8737.75 -65.9238 373.317
8740.41 -65.8714 357.304
8743.08 -66.7009 365.917
8745.75 -67.6394 372.443
8748.42 -61.5926 359.188
8751.08 -64.3444 368.953
8753.75 -67.2589 364.056
8756.42 -57.9318 359.908
8759.08 -60.3495 409.592
8761.75 -66.2832 429.95
8764.42 -57.899 451.316
8767.08 -74.2405 462.699
8769.75 -64.1448 411.22
8772.41 -57.5371 380.749
8775.08 -67.7264 354.681
8777.74 -66.3505 392.38
8780.4 -61.1379 369.869
8783.07 -78.0668 361.435
8785.73 -70.4931 279.798
8788.4 -68.7698 278.465
8791.06 -63.2964 288.035
8793.72 -60.099 303.882
8796.38 -65.0209 296.019
8799.05 -61.0573 285.065
8801.71 -62.077 296.726
8804.37 -64.4035 312.616
8807.03 -56.5595 308.369
8809.69 -55.2513 315.686
8812.35 -57.7219 327.055
8815.01 -58.7308 333.53
8817.67 -62.7457 351.929
8820.33 -67.5023 355.971
8822.99 -61.1366 428.002
8825.65 -46.115 510.115
8828.31 -61.5516 570.02
8830.97 -63.1873 553.534
8833.63 -60.8784 448.163
8836.29 -58.4073 345.612
8838.95 -64.3794 301.582
8841.6 -62.3891 275.284
8844.26 -61.864 225.66
8846.92 -63.8515 230.983
8849.57 -61.8005 236.504
8852.23 -64.1434 254.058
8854.89 -71.1026 306.073
8857.54 -64.1322 279.464
8860.2 -65.0455 299.484
8862.85 -67.9362 332.251
8865.51 -61.8743 360.775
8868.16 -60.9738 393.703
8870.82 -63.4441 386.419
8873.47 -64.2865 378.383
8876.13 -71.4044 351.765
8878.78 -68.9773 351.857
8881.43 -66.2759 377.98
8884.09 -65.9936 470.045
8886.74 -72.6159 541.256
8889.39 -68.4591 531.274
8892.04 -72.8053 437.195
8894.7 -71.4787 335.249
8897.35 -74.3982 298.078
8900 -70.8458 311.163
8902.65 -71.9165 370.051
8905.3 -70.6278 392.928
8907.95 -65.4953 360.652
8910.6 -76.5346 336.109
8913.25 -77.2782 312.065
8915.9 -64.5205 330.829
8918.55 -61.6164 441.472
8921.2 -54.4005 506.768
8923.85 -59.1565 485.453
8926.5 -71.0922 387.692
8929.15 -67.5062 284.728
8931.79 -66.3259 250.013
8934.44 -60.9139 238.416
8937.09 -70.3945 279.282
8939.74 -64.5213 283.394
8942.38 -69.6373 310.796
8945.03 -62.468 320.934
8947.68 -61.0794 317.999
8950.32 -57.5629 289.1
8952.97 -60.0048 277.547
8955.61 -60.4446 331.027
8958.26 -52.6509 388.036
8960.9 -65.1342 432.734
8963.55 -53.1121 377.068
8966.19 -61.4643 281.141
8968.84 -58.4703 237.691
8971.48 -54.4641 219.087
8974.12 -55.3809 235.592
8976.77 -55.7534 228.397
8979.41 -54.5647 246.514
8982.05 -57.1842 252.886
8984.69 -56.4918 265.424
8987.34 -53.3639 283.821
8989.98 -56.4824 289.62
8992.62 -50.5541 275.295
8995.26 -53.6574 254.239
8997.9 -55.2321 251.026
9000.54 -53.0061 287.772
9003.18 -57.6508 335.33
9005.82 -66.5506 348.963
9008.46 -58.6091 314.949
9011.1 -61.4786 268.676
9013.74 -55.2822 257.995
9016.38 -57.7991 246.496
9019.02 -54.6868 251.673
9021.65 -55.8479 258.812
9024.29 -56.2569 266.656
9026.93 -57.901 274.58
9029.57 -60.7113 275.903
9032.2 -62.5418 298.538
9034.84 -57.1808 297.494
9037.48 -70.0901 322.52
9040.11 -59.8739 330.334
9042.75 -63.291 321.788
9045.38 -61.607 289.057
9048.02 -60.2846 307.011
9050.65 -58.9131 318.409
9053.29 -60.5257 325.582
9055.92 -59.4905 304.031
9058.56 -55.8092 264.632
9061.19 -65.0928 273.818
9063.82 -57.4066 271.008
