wavelength spectrum_sum 3smoothed_sum
3508.77 1788.21 1487.98
3511.67 2675.73 2505.6
3514.58 3052.86 3021.41
3517.49 3335.65 3238.02
3520.39 3325.54 3312.67
3523.3 3276.82 3318.47
3526.21 3353.05 3339.13
3529.11 3387.51 3431.66
3532.02 3554.41 3472.29
3534.93 3474.94 3557.05
3537.83 3641.82 3585.91
3540.74 3640.98 3694.62
3543.65 3801.06 3789.83
3546.55 3927.46 3919.35
3549.46 4029.52 4001.16
3552.37 4046.5 4039.73
3555.27 4043.18 4051.03
3558.18 4063.41 4048.43
3561.09 4038.7 4110.59
3564 4229.67 4067
3566.9 3932.63 4055
3569.81 4002.7 3936.2
3572.72 3873.28 3983.19
3575.62 4073.58 3970.35
3578.53 3964.19 4063.83
3581.44 4153.73 4076.2
3584.34 4110.67 4105.54
3587.25 4052.23 4190.01
3590.16 4407.14 4228.71
3593.07 4226.75 4291.89
3595.97 4241.77 4321.43
3598.88 4495.76 4409.16
3601.79 4489.95 4475.74
3604.7 4441.53 4463.03
3607.6 4457.61 4505.6
3610.51 4617.67 4572.34
3613.42 4641.75 4710.53
3616.33 4872.16 4816.49
3619.23 4935.57 4959.16
3622.14 5069.76 5113.12
3625.05 5334.02 5155.47
3627.95 5062.64 5116.8
3630.86 4953.74 5128.88
3633.77 5370.25 5308.9
3636.68 5602.7 5505.42
3639.59 5543.31 5510.38
3642.49 5385.14 5627.7
3645.4 5954.65 5685.23
3648.31 5715.9 5901.66
3651.22 6034.43 5923.97
3654.12 6021.57 6026.95
3657.03 6024.84 6011.55
3659.94 5988.25 6032.92
3662.85 6085.68 6115.62
3665.75 6272.92 6262.28
3668.66 6428.25 6306.48
3671.57 6218.28 6227.95
3674.48 6037.33 6188.69
3677.39 6310.48 6184.12
3680.29 6204.54 6308.06
3683.2 6409.14 6356.38
3686.11 6455.45 6526.8
3689.02 6715.8 6678.58
3691.93 6864.5 6758.38
3694.83 6694.84 6799.76
3697.74 6839.93 6740.5
3700.65 6686.72 6807.58
3703.56 6896.07 6895.18
3706.46 7102.74 7121.68
3709.37 7366.23 7408.74
3712.28 7757.25 7636.48
3715.19 7785.96 7646.87
3718.1 7397.39 7734.6
3721.01 8020.44 7794.34
3723.91 7965.2 8023
3726.82 8083.37 8034.21
3729.73 8054.07 7990.99
3732.64 7835.53 8166.15
3735.55 8608.85 8552.9
3738.45 9214.33 8926.49
3741.36 8956.29 8943.4
3744.27 8659.58 8728.95
3747.18 8570.98 8800.18
3750.09 9169.97 9165.61
3753 9755.88 9577.67
3755.9 9807.15 10027.6
3758.81 10519.8 10148
3761.72 10117 10124
3764.63 9735.33 9852.39
3767.54 9704.88 9910.29
3770.45 10290.7 10412.9
3773.35 11243.2 11196.8
3776.26 12056.7 12047.2
3779.17 12841.7 12527.7
3782.08 12684.8 12835.3
3784.99 12979.4 12792
3787.9 12711.8 12587.4
3790.8 12071.2 12103
3793.71 11526.1 11771.1
3796.62 11715.9 11915.8
3799.53 12505.2 12558.4
3802.44 13454.1 13482
3805.35 14486.6 14293.7
3808.25 14940.3 15048.2
3811.16 15717.6 15725.8
3814.07 16519.6 16212.7
3816.98 16400.8 16404
3819.89 16291.5 16135.2
3822.8 15713.3 15590.8
3825.71 14767.5 14562.8
3828.61 13207.7 13534.7
3831.52 12628.8 12918.6
3834.43 12919.3 13033.2
3837.34 13551.5 13599.8
3840.25 14328.7 14555.1
3843.16 15785.1 15595.4
3846.07 16672.4 16678.7
3848.97 17578.7 17586.1
3851.88 18507.2 18580
3854.79 19654.1 19548.7
3857.7 20484.9 20296.1
3860.61 20749.3 20680.6
3863.52 20807.4 20892.5
3866.43 21120.6 20907.4
3869.34 20794.1 20755.8
3872.24 20352.7 20279.7
3875.15 19692.2 19464.3
3878.06 18348 18281
3880.97 16802.9 16875.7
3883.88 15476.3 15710.9
3886.79 14853.5 15265.2
3889.7 15466 15426.1
3892.6 15958.8 16178.4
3895.51 17110.5 17051
3898.42 18083.7 17973.2
3901.33 18725.3 18904.1
3904.24 19903.2 19951.1
3907.15 21224.7 21084
3910.06 22124 22087.4
3912.97 22913.5 22873.6
3915.87 23583.2 23649.8
3918.78 24452.6 24389.7
3921.69 25133.2 24861.6
3924.6 24999 24559.8
3927.51 23547.1 23834.5
3930.42 22957.4 23188.3
3933.33 23060.6 23237.9
3936.24 23695.8 23578.5
3939.14 23979.3 23943.7
3942.05 24156.1 24087.4
3944.96 24127 23980.9
3947.87 23659.5 23800.2
3950.78 23614 23529.6
3953.69 23315.1 23410.6
3956.6 23302.8 22762.3
3959.5 21669.1 21432.1
3962.41 19324.3 19475
3965.32 17431.4 17869.2
3968.23 16851.8 17324.7
3971.14 17690.9 17843.5
3974.05 18987.9 19009.6
3976.96 20350 20345
3979.87 21697.2 21659
3982.77 22929.9 22952.8
3985.68 24231.2 24037
3988.59 24949.9 25074.6
3991.5 26042.8 25999.8
3994.41 27006.6 27095.1
3997.32 28235.9 27960.9
4000.23 28640.4 28803.6
4003.14 29534.5 29403.9
4006.04 30037 30252.2
4008.95 31185.3 31032.1
4011.86 31873.9 31870.4
4014.77 32551.9 32392.4
4017.68 32751.4 32771.3
4020.59 33010.6 33095.6
4023.5 33524.9 33329
4026.4 33451.6 33407.2
4029.31 33245.1 33496.4
4032.22 33792.5 33648.1
4035.13 33906.8 33886.8
4038.04 33961.2 33661.7
4040.95 33117.1 33467.5
4043.86 33324.1 33416.3
4046.77 33807.7 33758.4
4049.67 34143.4 33890.7
4052.58 33721.1 33988
4055.49 34099.6 33949.3
4058.4 34027.1 33946
4061.31 33711.4 33818.2
4064.22 33716.1 33561.2
4067.13 33256.1 33078.3
4070.03 32262.7 32222.9
4072.94 31149.9 31382.4
4075.85 30734.7 30889.9
4078.76 30785 30739.1
4081.67 30697.5 30676.8
4084.58 30548 30499.5
4087.48 30253.1 29982
4090.39 29145 28929.3
4093.3 27389.7 27122.9
4096.21 24834.2 25177.1
4099.12 23307.5 23909.1
4102.03 23585.6 23809.9
4104.94 24536.6 24716.1
4107.84 26026 26044.4
4110.75 27570.7 27342.8
4113.66 28431.7 28290.7
4116.57 28869.8 29146
4119.48 30136.5 29913.2
4122.39 30733.3 30913.2
4125.29 31869.8 31677.3
4128.2 32428.9 32613.2
4131.11 33540.9 33678.8
4134.02 35066.5 34853.2
4136.93 35952.2 35924.1
4139.84 36753.5 36517.5
4142.74 36846.7 36961.5
4145.65 37284.2 37171.7
4148.56 37384.2 37418.1
4151.47 37586 37839.6
4154.38 38548.6 38425.8
4157.29 39142.9 38955.3
4160.19 39174.4 39330.3
4163.1 39673.7 39554.9
4166.01 39816.6 39766
4168.92 39807.7 39659.1
4171.83 39353.1 39420.4
4174.73 39100.2 39319.9
4177.64 39506.3 39572.3
4180.55 40110.2 39885
4183.46 40038.3 40146.1
4186.37 40289.7 40394.6
4189.27 40855.8 40378.7
4192.18 39990.6 40239
4195.09 39870.7 39998.8
4198 40135.3 40122.4
4200.91 40361.4 40603.6
4203.81 41314.3 41199.6
4206.72 41923.2 41888.9
4209.63 42429.1 42275.7
4212.54 42474.6 42575.9
4215.45 42824 42840.2
4218.35 43222 43018.4
4221.26 43009.2 42902.9
4224.17 42477.6 42946.1
4227.08 43351.6 43141.8
4229.99 43596.3 43445.7
4232.89 43389.3 43332.3
4235.8 43011.1 43255.9
4238.71 43367.3 43499.7
4241.62 44120.7 43824.1
4244.52 43984.5 44080.6
4247.43 44136.6 44283.8
4250.34 44730.2 44716.7
4253.25 45283.2 45270.1
4256.15 45797 45573.8
4259.06 45641.1 45880.8
4261.97 46204.3 46236.5
4264.88 46864.1 46310.4
4267.79 45862.8 46389.8
4270.69 46442.4 46342.2
4273.6 46721.4 46704
4276.51 46948.2 47072
4279.42 47546.4 47166.9
4282.32 47006.1 47203.5
4285.23 47057.9 46893.6
4288.14 46616.8 46805.8
4291.04 46742.6 46431.4
4293.95 45934.7 45952.6
4296.86 45180.6 45057
4299.77 44055.6 44471.4
4302.67 44178.1 44271.6
4305.58 44581 44441.9
4308.49 44566.5 44680.4
4311.4 44893.8 45012.7
4314.3 45577.8 45290.4
4317.21 45399.6 45218.9
4320.12 44679.4 44609.6
4323.02 43750 43633.1
4325.93 42469.9 42281.2
4328.84 40623.9 40397.9
4331.75 38100 37651
4334.65 34229.2 34857.6
4337.56 32243.5 32821.3
4340.47 31991.2 32541.7
4343.37 33390.5 33361.9
4346.28 34704 34943.6
4349.19 36736.4 36770.2
4352.09 38870.2 38605.2
4355 40209.1 40307.8
4357.91 41844 41871.6
4360.81 43561.6 43435.1
4363.72 44899.7 44888.8
4366.63 46205 46173.5
4369.53 47415.6 47556.5
4372.44 49048.9 48561.9
4375.35 49221.2 49457.3
4378.25 50101.6 49730.9
4381.16 49869.8 49991.9
4384.07 50004.2 50021.5
4386.97 50190.4 50255
4389.88 50570.5 50432.9
4392.79 50537.9 50517.1
4395.69 50442.9 50589.6
4398.6 50788 51017.1
4401.51 51820.4 51599.3
4404.41 52189.4 52188.6
4407.32 52556.2 52374.4
4410.22 52377.7 52270.8
4413.13 51878.7 52209.7
4416.04 52372.7 52168
4418.94 52252.6 52762.1
4421.85 53660.9 52912.1
4424.75 52822.9 53179.7
4427.66 53055.2 53110.4
4430.57 53453.2 53342
4433.47 53517.5 53685.2
4436.38 54084.8 53716.1
4439.28 53546 53529.6
4442.19 52958 53141.2
4445.1 52919.7 52940.2
4448 52942.9 52832.6
4450.91 52635.2 52647.7
4453.81 52364.9 52453.8
4456.72 52361.2 52217.8
4459.63 51927.3 52207.1
4462.53 52332.9 51979.7
4465.44 51679 51915.6
4468.34 51735 52229.2
4471.25 53273.6 52932.1
4474.15 53787.8 53600.7
4477.06 53740.8 53653.9
4479.96 53432.9 53691.3
4482.87 53900.2 53916.9
4485.77 54417.4 54291.1
4488.68 54555.7 54786.2
4491.59 55385.6 55211.7
4494.49 55693.9 55858.3
4497.4 56495.6 56385
4500.3 56965.7 56901.2
4503.21 57242.3 57345.9
4506.11 57829.6 57661.2
4509.02 57911.8 57832.8
4511.92 57757.1 57653.8
4514.83 57292.5 57201.3
4517.73 56554.4 56545.7
4520.64 55790.2 55726.8
4523.54 54835.9 55196.3
4526.45 54962.8 55176.3
4529.35 55730.2 55677.8
4532.26 56340.4 56184
4535.16 56481.4 56555.4
4538.07 56844.3 56723.1
4540.97 56843.5 56766.9
4543.87 56613 56527.5
4546.78 56126 56018.8
4549.68 55317.3 55320.6
4552.59 54518.5 54838.9
4555.49 54680.9 54993.3
4558.4 55780.6 55652.8
4561.3 56496.8 56567.5
4564.21 57425.2 57129.7
4567.11 57467.1 57684.1
4570.01 58160 58035.4
4572.92 58479.1 58247.5
4575.82 58103.4 58230.1
4578.73 58107.7 58140.8
4581.63 58211.4 58385.5
4584.54 58837.3 58609.9
4587.44 58780.9 58820.3
4590.34 58842.7 58786.5
4593.25 58735.8 59086.4
4596.15 59680.7 59464.9
4599.05 59978.1 59713.4
4601.96 59481.3 59728.4
4604.86 59725.7 59834
4607.77 60294.9 60174.3
4610.67 60502.2 60518.9
4613.57 60759.6 60527
4616.48 60319.1 60734.5
4619.38 61124.6 60949.4
4622.28 61404.4 61282.9
4625.19 61319.5 61442.1
4628.09 61602.3 61464.4
4630.99 61471.2 61406.2
4633.9 61145 61332.3
4636.8 61380.7 61345.2
4639.7 61509.9 61515.4
4642.61 61655.6 61378.9
4645.51 60971.3 61323
4648.41 61342.1 61213.6
4651.32 61327.5 61556
4654.22 61998.3 61783
4657.12 62023.3 62070.9
4660.03 62190.9 61672
4662.93 60801.7 61030.9
4665.83 60100 60509.8
4668.73 60627.6 60646.6
4671.64 61212.3 61162.6
4674.54 61647.8 61589.9
4677.44 61909.7 61625.9
4680.34 61320.3 61714.6
4683.25 61913.9 61801.4
4686.15 62170.1 62110.6
4689.05 62247.8 62357
4691.95 62653.1 62435.7
4694.86 62406.1 62489.7
4697.76 62409.9 62406.1
4700.66 62402.1 62000.3
4703.56 61188.9 61937.3
4706.47 62220.8 61680.1
4709.37 61630.5 61893.3
4712.27 61828.7 61873.4
4715.17 62161.1 62150
4718.07 62460.4 62440.2
4720.98 62699 62587.8
4723.88 62603.9 62410.6
4726.78 61928.9 62233.2
4729.68 62166.6 62085.3
4732.58 62160.5 62094.3
4735.48 61955.7 62033.5
4738.39 61984.4 62122.4
4741.29 62427.1 62263
4744.19 62377.4 62422.8
4747.09 62463.9 62454.2
4749.99 62521.4 62438.1
4752.89 62329.1 62334.4
4755.79 62152.8 62290.2
4758.69 62388.6 62252.4
4761.6 62215.8 62415.6
4764.5 62642.3 62583.2
4767.4 62891.4 62842.1
4770.3 62992.6 63071.2
4773.2 63329.5 63032
4776.1 62773.8 63059.4
4779 63075 62938.2
4781.9 62965.9 62841.5
4784.8 62483.6 62649.3
4787.7 62498.5 62688.1
4790.6 63082.3 62807.3
4793.5 62841.1 62904.4
4796.41 62789.7 62787.2
4799.31 62730.8 62701.2
4802.21 62583.1 62471.5
4805.11 62100.5 62098.7
4808.01 61612.7 61796.2
4810.91 61675.4 61663.8
4813.81 61703.4 61576
4816.71 61349.4 61168.1
4819.61 60451.5 60475.9
4822.51 59626.9 59920.1
4825.41 59681.8 59745.9
4828.31 59928.9 59545.2
4831.21 59024.7 59233.7
4834.11 58747.5 58546.2
4837.01 57866.4 57990.5
4839.91 57357.7 56968.3
4842.81 55681 55547.4
4845.7 53603.7 53589.1
4848.6 51482.7 51116.2
4851.5 48262.3 48049.1
4854.4 44402.4 44311.2
4857.3 40269 41198.2
4860.2 38923.1 39445.6
4863.1 39144.7 39589.9
4866 40701.8 40822.4
4868.9 42620.6 42654.6
4871.8 44641.3 44530.6
4874.7 46329.8 46474.8
4877.6 48453.3 48116.4
4880.49 49566 49628.3
4883.39 50865.5 50938.2
4886.29 52383.1 52326.5
4889.19 53730.8 53853.1
4892.09 55445.3 55198.6
4894.99 56419.7 56392.5
4897.89 57312.7 57114.5
4900.78 57611.2 57916.4
4903.68 58825.1 58500.1
4906.58 59064.1 59015.4
4909.48 59157 59302.8
4912.38 59687.4 59162.6
4915.28 58643.3 58637.8
4918.17 57582.6 58135.5
4921.07 58180.5 58087.8
4923.97 58500.2 58692.6
4926.87 59397.2 59118.7
4929.76 59458.8 59382.2
4932.66 59290.6 59302.5
4935.56 59158.2 59539.4
4938.46 60169.4 60049.2
4941.36 60820.2 60714.4
4944.25 61153.5 61251.2
4947.15 61779.9 61779.3
4950.05 62404.3 61934.8
4952.94 61620.2 61963.1
4955.84 61864.8 61995.1
4958.74 62500.2 62352.6
4961.64 62693 62685.7
4964.53 62864 62751.6
4967.43 62697.8 62910.1
4970.33 63168.7 63088.7
4973.22 63399.6 63096.2
4976.12 62720.5 62585.7
4979.02 61637 61672.7
4981.91 60660.6 61113.3
4984.81 61042.3 61078.3
4987.71 61532 61530.8
4990.6 62018.1 61814.2
4993.5 61892.6 61864.7
4996.4 61683.2 61685.6
4999.29 61481 61376.4
5002.19 60965.1 61097.9
5005.08 60847.7 61120
5007.98 61547.3 61190.6
5010.88 61176.7 61284.6
5013.77 61129.7 61172.9
5016.67 61212.2 61287.2
5019.56 61519.6 61687.3
5022.46 62330 62102
5025.35 62456.3 62510.7
5028.25 62745.9 62675.4
5031.14 62824 62747.5
5034.04 62672.7 62556.9
5036.94 62174 62435.8
5039.83 62460.7 62513.4
5042.73 62905.5 62797.1
5045.62 63024.9 62992.7
5048.52 63047.6 63086.5
5051.41 63187.1 63498.9
5054.31 64262.2 63991.1
5057.2 64524 64585.2
5060.09 64969.4 64599.4
5062.99 64304.9 64480.4
5065.88 64166.9 63953
5068.78 63387.2 63608
5071.67 63270 62989.7
5074.57 62311.8 62498.1
5077.46 61912.6 62026.4
5080.36 61854.7 62032.1
5083.25 62329.1 62390
5086.14 62986.2 62796.7
5089.04 63074.7 62998.1
5091.93 62933.5 62883.5
5094.83 62642.4 62639.1
5097.72 62341.3 62563.1
5100.61 62705.5 62704.5
5103.51 63066.7 62999.1
5106.4 63225 63302.2
5109.29 63614.9 63308.9
5112.19 63086.7 63320.6
5115.08 63260 63207.7
5117.97 63276.4 62984.1
5120.87 62415.8 62329.3
5123.76 61295.7 61765
5126.65 61583.7 61486.4
5129.55 61579.9 61572.8
5132.44 61554.6 61600.3
5135.33 61666.2 61578.7
5138.22 61515.1 61656.3
5141.12 61787.5 61789.5
5144.01 62065.8 62035
5146.9 62251.6 62377.7
5149.79 62815.6 62449.4
5152.69 62281 62586.7
5155.58 62663.5 62440.1
5158.47 62375.9 62319.2
5161.36 61918.1 61719.9
5164.26 60865.8 60967.2
5167.15 60117.7 60232.2
5170.04 59713 60267.9
5172.93 60973 60677.4
5175.82 61346.1 61138.5
5178.71 61096.4 61031.8
5181.61 60652.8 60619.2
5184.5 60108.3 60124.6
5187.39 59612.6 59807.6
5190.28 59701.7 59559.7
5193.17 59364.7 59333.4
5196.06 58933.7 58357.8
5198.95 56775 57399.2
5201.84 56489 56688.6
5204.74 56801.7 56910.3
5207.63 57440.3 57450
5210.52 58108 58007.9
5213.41 58475.5 58459.5
5216.3 58795 58798.4
5219.19 59124.5 58878.2
5222.08 58715.1 58546.2
5224.97 57799 58049
5227.86 57633 57613.1
5230.75 57407.3 57700.4
5233.64 58060.8 57940.3
5236.53 58352.7 58514.9
5239.42 59131.2 59090.3
5242.31 59786.9 59454.1
5245.2 59444.2 59501
5248.09 59272 59362.7
5250.98 59371.9 59278
5253.87 59190 59167.3
5256.76 58940 58928.9
5259.65 58656.8 58177.4
5262.54 56935.4 57388.4
5265.43 56572.9 56456.1
5268.31 55859.9 55887.1
5271.2 55228.4 55902.4
5274.09 56618.8 56163.6
5276.98 56643.7 56770
5279.87 57047.5 57102.8
5282.76 57617.3 57705.9
5285.65 58452.9 58197.4
5288.54 58522 58529.2
5291.42 58612.7 58464.9
5294.31 58260 58567
5297.2 58828.4 58702.5
5300.09 59019 58987.6
5302.98 59115.4 59261.1
5305.87 59648.9 59395.8
5308.75 59423.1 59341.1
5311.64 58951.3 59006.6
5314.53 58645.3 58717.4
5317.42 58555.8 58574.4
5320.3 58522.1 58176.7
5323.19 57452.3 57821.8
5326.08 57491.1 57393
5328.97 57235.5 57471.3
5331.85 57687.3 57589.5
5334.74 57845.7 57722.3
5337.63 57633.9 57795
5340.51 57905.2 58039.6
5343.4 58579.6 58550.5
5346.29 59166.7 59020.7
5349.17 59315.9 59316.8
5352.06 59467.9 59487.3
5354.95 59678.1 59625.4
5357.83 59730.1 59451.8
5360.72 58947.2 59065.9
5363.61 58520.5 58431.4
5366.49 57826.6 57985.6
5369.38 57609.8 57970.8
5372.27 58476 58316
5375.15 58862.3 58578.5
5378.04 58397.2 58562
5380.92 58426.6 58466.6
5383.81 58576.1 58791.8
5386.69 59372.7 58957.4
5389.58 58923.6 59110.1
5392.46 59034 58756.9
5395.35 58313.2 58421.6
5398.23 57917.7 57780.7
5401.12 57111.2 57285.5
5404 56827.7 57070.4
5406.89 57272.2 57065.8
5409.77 57097.4 57339.3
5412.66 57648.4 57698.3
5415.54 58349 58114.3
5418.43 58345.5 58266.3
5421.31 58104.4 58008.4
5424.2 57575.3 57882.2
5427.08 57966.9 57908.6
5429.97 58183.4 58262
5432.85 58635.8 58566.7
5435.73 58880.9 59040.5
5438.62 59604.7 59121.4
5441.5 58878.5 59070.3
5444.38 58727.8 58885.8
5447.27 59051.1 58987
5450.15 59182.1 59139
5453.04 59183.7 58953.8
5455.92 58495.6 58913
5458.8 59059.8 58820.4
5461.68 58906 58959.2
5464.57 58911.9 58973.8
5467.45 59103.6 58876.5
5470.33 58613.9 58423.6
5473.22 57553.1 58019
5476.1 57889.8 57791.3
5478.98 57930.9 58039.1
5481.86 58296.5 58386.8
5484.75 58933 58837.6
5487.63 59283.4 59192.1
5490.51 59359.9 59335.9
5493.39 59364.3 59300.3
5496.27 59176.7 59076.5
5499.16 58688.6 59029.6
5502.04 59223.4 58721.5
5504.92 58252.5 58644.7
5507.8 58458.2 58430.1
5510.68 58579.5 58742.7
5513.56 59190.4 59211.8
5516.45 59865.6 59658.4
5519.33 59919.4 59778.2
5522.21 59549.8 59605.7
5525.09 59348.1 59290.6
5527.97 58974 59121.6
5530.85 59042.8 58882.1
5533.73 58629.4 58926.1
5536.61 59106.2 58969
5539.49 59171.5 59031.5
5542.37 58816.8 58786.7
5545.25 58371.8 58799.8
5548.13 59211 58980.8
5551.01 59359.5 59330.2
5553.89 59420.1 59558.4
5556.77 59895.6 59345
5559.65 58719.4 59233.5
5562.53 59085.5 58915.4
5565.41 58941.2 58944
5568.29 58805.2 58844.1
5571.17 58785.9 58814.3
5574.05 58851.8 59003.8
5576.93 59373.7 58923.8
5579.81 58546 58821.7
5582.69 58545.3 58360.5
5585.57 57990.2 58174.8
5588.45 57988.8 58077.2
5591.32 58252.5 58300.3
5594.2 58659.5 58365.5
5597.08 58184.5 58352.2
5599.96 58212.6 58316.4
5602.84 58552 58557.4
5605.72 58907.4 58669.1
5608.59 58548 58699.3
5611.47 58642.6 58408.1
5614.35 58033.8 58250.6
5617.23 58075.4 58110.8
5620.1 58223.3 58255.8
5622.98 58468.7 58450.7
5625.86 58660.2 58612.7
5628.74 58709.1 58571.2
5631.61 58344.3 58402.5
5634.49 58154.3 58217
5637.37 58152.5 58285.8
5640.25 58550.6 58204.9
5643.12 57911.8 58306.8
5646 58458 58429.7
5648.88 58919.3 58419.6
5651.75 57881.5 58049.9
5654.63 57348.8 57319.7
5657.5 56728.8 56827.4
5660.38 56404.7 56603.4
5663.26 56676.6 56716.9
5666.13 57069.5 57016.6
5669.01 57303.7 57402.3
5671.88 57833.5 57600.5
5674.76 57664.1 57764.8
5677.64 57796.8 57554.4
5680.51 57202.3 57335.6
5683.39 57007.8 56970.1
5686.26 56700.3 56866.7
5689.14 56891.9 56950.4
5692.01 57258.9 56989
5694.89 56816 56879.5
5697.76 56563.5 56652.1
5700.64 56576.6 56460.4
5703.51 56241.2 56332.8
5706.38 56180.6 56156
5709.26 56046.3 56135.6
5712.13 56179.8 56154.5
5715.01 56237.5 56380.5
5717.88 56724.3 56635.9
5720.75 56945.9 56944.8
5723.63 57164.2 56998.4
5726.5 56885.2 56861.9
5729.38 56536.2 56796.3
5732.25 56967.6 56891.1
5735.12 57169.4 57155.7
5738 57330.2 57072.3
5740.87 56717.4 56846.4
5743.74 56491.8 56385.2
5746.61 55946.6 56164.7
5749.49 56055.8 55904.6
5752.36 55711.3 55869.4
5755.23 55841 55831.7
5758.11 55942.7 55891.8
5760.98 55891.7 55659.6
5763.85 55144.4 55641.2
5766.72 55887.4 55587.4
5769.59 55730.4 55752.3
5772.47 55639.3 55645
5775.34 55565.2 55629
5778.21 55682.5 55378.5
5781.08 54887.7 55358.6
5783.95 55505.5 55086.8
5786.82 54867.2 55154.7
5789.69 55091.3 55047.5
5792.57 55184 55305.3
5795.44 55640.7 55301.2
5798.31 55078.9 55293.1
5801.18 55159.8 55060.7
5804.05 54943.3 55061.7
5806.92 55082.2 55093.2
5809.79 55254 55170.1
5812.66 55174.2 55276.1
5815.53 55400.1 55282.6
5818.4 55273.5 55259.4
5821.27 55104.8 55340.8
5824.14 55644.3 55389.5
5827.01 55419.4 55540.9
5829.88 55558.9 55644.6
5832.75 55955.5 55666.9
5835.62 55486.3 55576.2
5838.49 55286.8 55417
5841.36 55477.8 55457.9
5844.23 55609.1 55392
5847.1 55088.9 55170.9
5849.96 54814.7 54661.4
5852.83 54080.7 54390.3
5855.7 54275.6 54266.5
5858.57 54443.2 54266.5
5861.44 54080.6 54515.2
5864.31 55021.8 54781.2
5867.17 55241.3 55104.7
5870.04 55050.8 55222.7
5872.91 55376 55159.9
5875.78 55052.9 55004.7
5878.65 54585.3 54685.1
5881.51 54417.1 54325.1
5884.38 53972.9 53699.7
5887.25 52709.2 53100.2
5890.11 52618.4 52729
5892.98 52859.3 52713.1
5895.85 52661.4 53059.2
5898.72 53656.8 53181.9
5901.58 53227.5 53523.7
5904.45 53686.8 53704.5
5907.32 54199.2 53685.9
5910.18 53171.7 53842.6
5913.05 54156.8 53792.1
5915.91 54047.9 53946.5
5918.78 53634.7 53997.4
5921.65 54309.6 53949.2
5924.51 53903.2 53908.5
5927.38 53512.8 53707.2
5930.24 53705.5 53648.3
5933.11 53726.8 53601.2
5935.97 53371.3 53599.2
5938.84 53699.4 53468.3
5941.7 53334.3 53313.3
5944.57 52906.1 53130.3
5947.43 53150.7 53239.1
5950.3 53660.7 53400.4
5953.16 53389.9 53555.8
5956.03 53616.8 53393.6
5958.89 53174 53327.7
5961.75 53192.4 53167.1
5964.62 53134.9 53197.9
5967.48 53266.5 53301.4
5970.35 53502.8 53041.1
5973.21 52354 52795.3
5976.07 52529 52416.4
5978.94 52366.1 52422
5981.8 52370.9 52268.1
5984.66 52067.2 52176.2
5987.53 52090.4 52104.2
5990.39 52154.8 52215.5
5993.25 52401.3 52213.8
5996.11 52085.4 52391.2
5998.98 52687 52369.8
6001.84 52337 52232.7
6004.7 51674.2 51993
6007.56 51967.8 51859.8
6010.43 51937.4 51907
6013.29 51815.9 51682.8
6016.15 51295.2 51385.1
6019.01 51044.4 51104.9
6021.87 50975 51063.3
6024.73 51170.4 51202
6027.6 51460.6 51179.2
6030.46 50906.8 51167.1
6033.32 51134.1 51148.1
6036.18 51403.6 51401
6039.04 51665.4 51430.5
6041.9 51222.4 51264
6044.76 50904.2 51241.4
6047.62 51597.5 51275.6
6050.48 51325.2 51372
6053.34 51193.2 51185.5
6056.2 51038.2 51137.3
6059.06 51180.5 50994.5
6061.92 50764.8 51010.3
6064.78 51085.6 50879.7
6067.64 50788.7 51108.6
6070.5 51451.3 51152.7
6073.36 51217.9 51106.3
6076.22 50649.6 50843.3
6079.08 50662.4 50673.7
6081.94 50709.1 50650.4
6084.79 50579.7 50592.2
6087.65 50487.8 50573.9
6090.51 50654.4 50571.5
6093.37 50572.2 50460.8
6096.23 50155.7 50282.7
6099.09 50120.3 50051.3
6101.94 49878 49951.6
6104.8 49856.4 49994.7
6107.66 50249.8 49994.4
6110.52 49876.9 50075
6113.37 50098.4 49957.7
6116.23 49897.8 50019.5
6119.09 50062.3 49818.6
6121.95 49495.8 49636.5
6124.8 49351.6 49550.2
6127.66 49803.2 49283.8
6130.52 48696.7 48951.6
6133.37 48355 48204.8
6136.23 47562.5 47663
6139.08 47071.6 47569.8
6141.94 48075.2 47602.5
6144.8 47660.6 47873.9
6147.65 47885.8 47965.6
6150.51 48350.4 48117
6153.36 48114.8 48251.6
6156.22 48289.6 48289.8
6159.07 48464.9 48415.1
6161.93 48490.8 48419.3
6164.78 48302.3 48327.6
6167.64 48189.7 48231
6170.49 48201 48102.7
6173.35 47917.5 48015.8
6176.2 47929 47910.2
6179.06 47884 47975
6181.91 48112.1 47934.2
6184.77 47806.6 47942.6
6187.62 47909.2 47785.3
6190.47 47640 47875.2
6193.33 48076.5 47988.9
6196.18 48250.2 48135.7
6199.03 48080.5 48079.3
6201.89 47907.2 48074.1
6204.74 48234.5 47968.6
6207.59 47764 48011
6210.45 48034.5 47844
6213.3 47733.7 47745.1
6216.15 47467 47597.9
6219.01 47593 47439.5
6221.86 47258.6 47312.9
6224.71 47087.2 46463.9
6227.56 45046 45746.8
6230.41 45107.2 44990.1
6233.27 44817.1 44990.3
6236.12 45046.5 44961
6238.97 45019.4 44968.4
6241.82 44839.4 44826.1
6244.67 44619.4 44646.4
6247.52 44480.3 44553.5
6250.37 44560.6 44508.6
6253.22 44484.7 44558.3
6256.07 44629.6 44609.2
6258.93 44713.3 44737.7
6261.78 44870.1 44761.5
6264.63 44701.2 44724.1
6267.48 44601.1 44749.2
6270.33 44945.4 44620.2
6273.18 44314.3 44362
6276.03 43826.3 44204.2
6278.88 44472 44119.9
6281.72 44061.2 44099.8
6284.57 43766.3 43993.5
6287.42 44152.9 43945.9
6290.27 43918.4 44034.3
6293.12 44031.5 43877.8
6295.97 43683.4 43938.6
6298.82 44100.8 43833.9
6301.67 43717.6 43799.9
6304.52 43581.4 43722.1
6307.36 43867.1 43780.4
6310.21 43892.7 43771.1
6313.06 43553.6 43502.7
6315.91 43061.9 43470.1
6318.75 43794.9 43590.9
6321.6 43915.8 43907.3
6324.45 44011.3 43870.8
6327.3 43685.2 43765.5
6330.14 43600.1 43588.7
6332.99 43480.9 43578.6
6335.84 43654.8 43449
6338.68 43211.3 43360.6
6341.53 43215.7 43137.8
6344.38 42986.5 43188.7
6347.22 43363.9 43340.9
6350.07 43672.2 43433.6
6352.92 43264.5 43386.8
6355.76 43223.7 43289.3
6358.61 43379.8 43208.8
6361.45 43023.1 43234
6364.3 43299.3 42985.7
6367.14 42634.6 42904.9
6369.99 42780.9 42771.3
6372.83 42898.5 42754.9
6375.68 42585.4 42874.6
6378.52 43139.9 42781
6381.37 42617.7 42823.1
6384.21 42711.5 42686.4
6387.06 42730 42679.9
6389.9 42598.1 42547.3
6392.74 42314 42434.9
6395.59 42392.5 42362.1
6398.43 42379.8 42515
6401.27 42772.6 42414.8
6404.12 42091.9 42405.6
6406.96 42352.2 42058.4
6409.8 41731.2 42007.2
6412.65 41938.3 41787.3
6415.49 41692.4 41819.6
6418.33 41828 41860.6
6421.17 42061.5 41905.5
6424.02 41827.2 41811.4
6426.86 41545.6 41675.8
6429.7 41654.7 41617.5
6432.54 41652.3 41745.2
6435.38 41928.7 41705.2
6438.23 41534.5 41644.8
6441.07 41471.1 41669
6443.91 42001.4 41853.4
6446.75 42087.7 41840.8
6449.59 41433.2 41521.1
6452.43 41042.4 41192.5
6455.27 41102 41032.8
6458.11 40953.9 41038.8
6460.95 41060.6 41152.7
6463.79 41443.6 41254.1
6466.63 41258.2 41261.4
6469.47 41082.2 41280.9
6472.31 41502.2 41364
6475.15 41507.5 41386.6
6477.99 41150.2 41224.4
6480.83 41015.6 41067.3
6483.67 41036 40874
6486.51 40570.5 40544.1
6489.35 40026 39915.7
6492.19 39150.7 39283.5
6495.03 38673.7 39195.4
6497.86 39761.8 39454.1
6500.7 39926.6 39961.6
6503.54 40196.2 40052.2
6506.38 40033.9 40081.9
6509.22 40015.6 39994.8
6512.05 39934.8 39934.8
6514.89 39853.9 39864.4
6517.73 39804.6 39673.5
6520.57 39362 39579.1
6523.4 39570.8 39381.8
6526.24 39212.4 39312.2
6529.08 39153.4 39067.8
6531.91 38837.6 38731.6
6534.75 38203.7 38373.3
6537.59 38078.5 37945.2
6540.42 37553.5 37473.2
6543.26 36787.5 36755.8
6546.09 35926.4 35836.6
6548.93 34795.9 34768.5
6551.77 33583.2 33096
6554.6 30908.8 30920.1
6557.44 28268.2 28336.2
6560.27 25831.6 26968.4
6563.11 26805.3 26956.3
6565.94 28232 28423.5
6568.78 30233.1 30211.3
6571.61 32168.7 31898.6
6574.44 33294 33533.4
6577.28 35137.5 34774
6580.11 35890.3 35873.4
6582.95 36592.2 36614.6
6585.78 37361.1 37225.8
6588.61 37724.1 37585.6
6591.45 37671.8 37674.2
6594.28 37626.8 37791.8
6597.11 38076.8 38072.1
6599.95 38512.6 38432.2
6602.78 38707.3 38687.1
6605.61 38841.4 38669.9
6608.44 38460.9 38658.9
6611.28 38674.3 38630.1
6614.11 38755.2 38784.8
6616.94 38924.9 38973.3
6619.77 39239.8 39130.7
6622.61 39227.2 39235.2
6625.44 39238.6 39195.4
6628.27 39120.3 38924.4
6631.1 38414.5 38830.4
6633.93 38956.4 38829.5
6636.76 39117.7 39027.8
6639.59 39009.4 38977.8
6642.42 38806.4 38836.6
6645.25 38694 38715.9
6648.08 38647.3 38775
6650.91 38983.7 38941.9
6653.74 39194.9 39098.5
6656.57 39116.8 39206.2
6659.4 39306.7 39165.9
6662.23 39074 39057
6665.06 38790.2 38820.7
6667.89 38598.1 38680.4
6670.72 38652.9 38583.8
6673.55 38500.3 38571.1
6676.38 38560 38423.3
6679.21 38209.7 38495.7
6682.03 38717.6 38553.9
6684.86 38734.4 38712.8
6687.69 38686.3 38710.2
6690.52 38709.8 38678.7
6693.35 38639.9 38637
6696.17 38561.2 38640.5
6699 38720.2 38501
6701.83 38221.6 38391.4
6704.66 38232.4 38304
6707.48 38458.1 38460.2
6710.31 38690 38549.1
6713.14 38499.3 38413.2
6715.96 38050.4 38199
6718.79 38047.3 38098.5
6721.62 38197.8 38098.3
6724.44 38049.9 38148
6727.27 38196.3 38167.8
6730.09 38257.4 38259.3
6732.92 38324.2 38233
6735.74 38117.5 38048.1
6738.57 37702.5 38014.4
6741.39 38223 37944.9
6744.22 37909.2 37966.6
6747.04 37767.6 37949.1
6749.87 38170.6 37991.5
6752.69 38036.4 37999
6755.52 37790 37714.3
6758.34 37316.5 37600.1
6761.16 37693.7 37564.4
6763.99 37682.8 37670.6
6766.81 37635.1 37616.8
6769.63 37532.5 37547.5
6772.46 37474.8 37656.2
6775.28 37961.4 37680.3
6778.1 37604.7 37726.8
6780.93 37614.2 37596.1
6783.75 37569.4 37519.5
6786.57 37374.9 37386.6
6789.39 37215.4 37275.6
6792.22 37236.6 37186.2
6795.04 37106.7 37158.9
6797.86 37133.4 37163.4
6800.68 37250.2 37278
6803.5 37450.2 37252.3
6806.32 37056.4 37199.8
6809.15 37092.6 37051.8
6811.97 37006.4 36997.4
6814.79 36893.3 36988.2
6817.61 37064.9 36923.8
6820.43 36813.4 36999.5
6823.25 37120.3 36829.1
6826.07 36553.7 36751.5
6828.89 36580.4 36492.8
6831.71 36344.3 36365.7
6834.53 36172.3 36175.4
6837.35 36009.5 36085.9
6840.17 36076 36023.3
6842.99 35984.2 36130.9
6845.8 36332.4 36127.2
6848.62 36065 36194
6851.44 36184.5 36018.4
6854.26 35805.6 35920.3
6857.08 35770.7 35420.1
6859.9 34683.9 34426
6862.71 32823.4 32573.3
6865.53 30212.6 30583.1
6868.35 28713.2 29226.9
6871.17 28754.7 29089.4
6873.98 29800.2 29831.9
6876.8 30940.8 30808.6
6879.62 31684.8 31393.6
6882.43 31555.2 31615.4
6885.25 31606 31521.6
6888.07 31403.6 31410.9
6890.88 31223 31363.5
6893.7 31464 31489.4
6896.52 31781.2 31693.5
6899.33 31835.2 31968.4
6902.15 32288.7 32181.7
6904.96 32421.2 32394.4
6907.78 32473.3 32630.6
6910.59 32997.4 32755.3
6913.41 32795.1 32991.9
6916.22 33183.1 33228.4
6919.04 33707.1 33497.2
6921.85 33601.3 33638.9
6924.67 33608.2 33593.1
6927.48 33569.8 33687.7
6930.29 33885 33724.3
6933.11 33718.1 33880.6
6935.92 34038.6 33810.2
6938.73 33674 33703.6
6941.55 33398.3 33497.9
6944.36 33421.4 33480
6947.17 33620.2 33407.1
6949.99 33179.6 33418.5
6952.8 33455.7 33378.6
6955.61 33500.6 33545.8
6958.42 33681.2 33526.1
6961.24 33396.5 33579.9
6964.05 33662.1 33550
6966.86 33591.3 33502.4
6969.67 33253.8 33318.8
6972.48 33111.3 33182.5
6975.29 33182.4 33096.8
6978.1 32996.8 33015.8
6980.91 32868.3 32876.9
6983.72 32765.6 32783.1
6986.54 32715.5 32717.2
6989.35 32670.4 32690.9
6992.16 32686.7 32620.7
6994.97 32504.9 32564.9
6997.78 32503.2 32484.9
7000.58 32446.7 32413.5
7003.39 32290.7 32283.1
7006.2 32111.8 32127.8
7009.01 31980.8 32107.2
7011.82 32228.9 31975.1
7014.63 31715.6 31912
7017.44 31791.5 31742.4
7020.25 31720.1 31715.9
7023.05 31636.2 31680.1
7025.86 31684 31701.1
7028.67 31783 31750
7031.48 31782.9 31653.2
7034.29 31393.6 31569.4
7037.09 31531.8 31537.8
7039.9 31688.1 31622.2
7042.71 31646.7 31614.9
7045.51 31509.8 31517.9
7048.32 31397.4 31426.7
7051.13 31372.9 31329.7
7053.93 31218.8 31233.4
7056.74 31108.5 31173.3
7059.54 31192.6 31192.2
7062.35 31275.4 31138.1
7065.16 30946.3 31096.9
7067.96 31068.8 31059.7
7070.77 31163.9 31062.2
7073.57 30954 30982.4
7076.38 30829.3 30761
7079.18 30499.7 30810.9
7081.99 31103.8 30755.6
7084.79 30663.3 30759.7
7087.59 30512 30581.7
7090.4 30569.8 30567
7093.2 30619.3 30493.3
7096.01 30290.9 30444
7098.81 30421.8 30446.8
7101.61 30627.9 30408.9
7104.41 30177.1 30391.4
7107.22 30369.4 30164.4
7110.02 29946.8 30026.1
7112.82 29762.1 29847.1
7115.63 29832.4 29796.8
7118.43 29795.8 29732.9
7121.23 29570.4 29647.5
7124.03 29576.2 29570.2
7126.83 29564.1 29652.1
7129.63 29816.1 29683
7132.44 29668.8 29675.4
7135.24 29541.2 29593.9
7138.04 29571.8 29517
7140.84 29438.1 29440
7143.64 29310.3 29363.7
7146.44 29342.7 28914.9
7149.24 28091.5 28509.3
7152.04 28093.5 28122.3
7154.84 28181.8 28065.9
7157.64 27922.4 27899.9
7160.44 27595.5 27684.6
7163.24 27535.9 27408.7
7166.04 27094.6 27221
7168.84 27032.3 27059.2
7171.63 27050.8 26932.7
7174.43 26715.1 26789.2
7177.23 26601.9 26608
7180.03 26506.9 26414
7182.83 26133.2 26280.8
7185.62 26202.4 26100.2
7188.42 25965.2 26048.5
7191.22 25977.8 26001.8
7194.02 26062.5 26149.5
7196.81 26408.2 26152.8
7199.61 25987.8 26162.1
7202.41 26090.3 26176.3
7205.2 26450.8 26223.7
7208 26130.1 26430.5
7210.8 26710.7 26411.2
7213.59 26392.8 26504.8
7216.39 26411 26340.6
7219.18 26217.8 26252.6
7221.98 26128.8 26248.1
7224.77 26397.6 26094.3
7227.57 25756.6 25988.1
7230.36 25810 25701.6
7233.16 25538.1 25731.7
7235.95 25847 25719.2
7238.75 25772.4 25681.7
7241.54 25425.7 25615.3
7244.34 25647.8 25530.2
7247.13 25517 25491.7
7249.92 25310.3 25402.1
7252.72 25379 25380.3
7255.51 25451.5 25392.3
7258.3 25346.3 25323
7261.1 25171.1 25221.2
7263.89 25146.3 25153.2
7266.68 25142.2 25178.5
7269.47 25247.1 25078.6
7272.27 24846.5 25037.6
7275.06 25019.3 25013.7
7277.85 25175.3 25071.6
7280.64 25020.2 24987.1
7283.43 24765.8 24770.2
7286.22 24524.6 24654
7289.01 24671.7 24510.5
7291.8 24335 24635.6
7294.6 24900.1 24617.7
7297.39 24618 24783.8
7300.18 24833.4 24661.5
7302.97 24533.3 24659.7
7305.76 24612.6 24589.7
7308.55 24623.3 24646.8
7311.33 24704.6 24662
7314.12 24658.2 24743.3
7316.91 24867.2 24777.4
7319.7 24806.9 24798.7
7322.49 24722.1 24739
7325.28 24688 24669.1
7328.07 24597.2 24621.5
7330.86 24579.3 24571.6
7333.64 24538.4 24653.9
7336.43 24844.1 24747
7339.22 24858.6 24800.7
7342.01 24699.3 24792.2
7344.79 24818.7 24741.4
7347.58 24706.1 24602.1
7350.37 24281.4 24390.1
7353.15 24182.8 24293.7
7355.94 24416.8 24264.2
7358.73 24192.9 24265.1
7361.51 24185.5 24229.9
7364.3 24311.4 24275.3
7367.08 24329 24270.4
7369.87 24170.9 24172.7
7372.66 24018.2 24152.9
7375.44 24269.6 24111.5
7378.23 24046.8 24057.5
7381.01 23856 23789.3
7383.79 23465.2 23614.9
7386.58 23523.4 23535.8
7389.36 23619 23589.2
7392.15 23625.2 23578.8
7394.93 23492.1 23527.5
7397.71 23465.1 23461.2
7400.5 23426.4 23395.7
7403.28 23295.7 23285.8
7406.06 23135.3 23200.6
7408.85 23170.8 23147.3
7411.63 23135.8 23124.7
7414.41 23067.7 23066.3
7417.19 22995.6 22987.6
7419.98 22899.7 23034.1
7422.76 23207.2 23048.9
7425.54 23039.8 23108.3
7428.32 23077.8 23130.4
7431.1 23273.5 23078.1
7433.88 22882.9 23071.4
7436.66 23058 22923.5
7439.45 22829.7 22909.9
7442.23 22841.9 22845.3
7445.01 22864.4 22803.3
7447.79 22703.6 22766
7450.57 22730 22742.6
7453.35 22794.3 22791.4
7456.13 22850 22690.4
7458.91 22427 22594.8
7461.68 22507.4 22542.1
7464.46 22692 22609
7467.24 22627.6 22724.4
7470.02 22853.6 22715
7472.8 22663.8 22798.8
7475.58 22879.1 22711.9
7478.36 22592.9 22654.3
7481.13 22491 22506.1
7483.91 22434.3 22374.9
7486.69 22199.3 22263
7489.47 22155.3 22075.5
7492.24 21872 21980.2
7495.02 21913.3 21940.7
7497.8 22036.9 22043.8
7500.57 22181.3 22108.2
7503.35 22106.5 22064.4
7506.12 21905.6 21910
7508.9 21717.9 21787.6
7511.68 21739.2 21816.8
7514.45 21993.2 21854.5
7517.23 21831.2 21850
7520 21725.5 21723.1
7522.78 21612.5 21645.9
7525.55 21599.6 21660.9
7528.33 21770.5 21633.6
7531.1 21530.6 21618.6
7533.87 21554.7 21468.7
7536.65 21320.8 21519.2
7539.42 21682 21502.2
7542.2 21503.8 21553.9
7544.97 21475.9 21500.5
7547.74 21521.8 21500.6
7550.51 21504.1 21432
7553.29 21270 21425.4
7556.06 21502 21442.7
7558.83 21556.1 21530.8
7561.6 21534.3 21469.3
7564.38 21317.5 21350.9
7567.15 21201 21167.9
7569.92 20985.3 20987.2
7572.69 20775.2 20888.3
7575.46 20904.3 20862.2
7578.23 20907.1 20824.7
7581 20662.8 20588.1
7583.77 20194.4 20065.2
7586.54 19338.5 18926
7589.31 17245.2 16877.3
7592.08 14048.2 14139.8
7594.85 11125.9 11456.8
7597.62 9196.36 9262.17
7600.39 7464.24 7895.48
7603.16 7025.85 7321.14
7605.93 7473.34 7731.49
7608.7 8695.28 8963.98
7611.47 10723.3 10886.9
7614.24 13241.9 12545.7
7617 13671.9 13346.3
7619.77 13125.1 13008.2
7622.54 12227.6 12403.6
7625.31 11858 11861.7
7628.07 11499.5 11703.7
7630.84 11753.5 11809.4
7633.61 12175 12050.3
7636.38 12222.2 12448.6
7639.14 12948.6 12878.7
7641.91 13465.5 13490.8
7644.67 14058.3 14033.8
7647.44 14577.8 14535.2
7650.21 14969.7 15008.1
7652.97 15476.8 15434.9
7655.74 15858.2 15854.2
7658.5 16227.6 16132.3
7661.27 16311 16359.9
7664.03 16541 16656.9
7666.8 17118.8 17042.2
7669.56 17466.7 17473.5
7672.32 17835.1 17708.6
7675.09 17824.2 17889.6
7677.85 18009.5 18062.7
7680.61 18354.4 18310.7
7683.38 18568 18499.7
7686.14 18576.7 18554.3
7688.9 18518.1 18506.9
7691.67 18425.9 18519.6
7694.43 18614.7 18586.5
7697.19 18718.8 18652.9
7699.95 18625 18681.3
7702.72 18700.1 18614.2
7705.48 18517.4 18503.5
7708.24 18292.9 18335.6
7711 18196.5 18237.1
7713.76 18221.8 18269.3
7716.52 18389.6 18413.5
7719.28 18629.1 18478.1
7722.04 18415.7 18578.7
7724.8 18691.3 18538.1
7727.56 18507.2 18592.8
7730.32 18580 18528.8
7733.08 18499.3 18433.3
7735.84 18220.6 18316.3
7738.6 18228.9 18190.9
7741.36 18123.2 18148.9
7744.12 18094.7 17976.2
7746.88 17710.7 17998.7
7749.64 18190.8 17927.5
7752.39 17881.1 17944.4
7755.15 17761.2 17728.8
7757.91 17544.1 17578.1
7760.67 17429.1 17498.8
7763.42 17523.1 17481.6
7766.18 17492.4 17279.9
7768.94 16824.2 16933.7
7771.69 16484.5 16560.4
7774.45 16372.6 16464.2
7777.21 16535.4 16479.5
7779.96 16530.5 16599.8
7782.72 16733.5 16715
7785.47 16881 16802.6
7788.23 16793.3 16969.1
7790.99 17232.9 17027
7793.74 17054.7 17089.6
7796.5 16981.3 17113
7799.25 17302.9 17161.9
7802 17201.5 17169
7804.76 17002.4 17050.9
7807.51 16948.6 17028.8
7810.27 17135.2 17060.4
7813.02 17097.4 17103.9
7815.77 17078.9 17130.7
7818.53 17215.6 17020.5
7821.28 16767 16999.1
7824.03 17014.6 16806.4
7826.78 16637.7 16803.7
7829.54 16758.9 16704.2
7832.29 16715.9 16746.7
7835.04 16765.2 16709.5
7837.79 16647.4 16732.6
7840.54 16785.1 16731.5
7843.3 16761.9 16741.2
7846.05 16676.5 16659.2
7848.8 16539.2 16494
7851.55 16266.4 16348.3
7854.3 16239.3 16237.5
7857.05 16206.8 16148.1
7859.8 15998.2 16065.5
7862.55 15991.5 16037.1
7865.3 16121.8 16114.1
7868.05 16229 16204.8
7870.8 16263.7 16220.1
7873.55 16167.7 16130.4
7876.29 15959.6 15999.7
7879.04 15871.7 15883.4
7881.79 15818.9 15774
7884.54 15631.3 15877.2
7887.29 16181.3 15824.1
7890.04 15659.7 15822.9
7892.78 15627.8 15557.3
7895.53 15384.5 15560.9
7898.28 15670.3 15505.8
7901.02 15462.6 15556.9
7903.77 15537.9 15449.1
7906.52 15346.9 15417.4
7909.26 15367.4 15395.5
7912.01 15472.3 15407.5
7914.76 15382.7 15236.5
7917.5 14854.3 15096.6
7920.25 15052.6 14920.2
7922.99 14853.7 14841.7
7925.74 14618.6 14721
7928.48 14690.5 14546.4
7931.23 14330.1 14399.3
7933.97 14177.3 14273.1
7936.71 14311.7 14248.6
7939.46 14256.7 14307.2
7942.2 14353.3 14387.1
7944.95 14551.4 14536.9
7947.69 14706 14558.8
7950.43 14419 14639
7953.17 14792 14615.7
7955.92 14636.2 14582.6
7958.66 14319.5 14533.5
7961.4 14644.9 14464.5
7964.14 14429 14479
7966.89 14363 14449.3
7969.63 14555.9 14537.7
7972.37 14694.3 14561.9
7975.11 14435.7 14593.7
7977.85 14651 14537.8
7980.59 14526.6 14487.4
7983.33 14284.7 14400.2
7986.07 14389.2 14292.9
7988.81 14204.7 14274.4
7991.55 14229.3 14198.4
7994.29 14161.1 14189.4
7997.03 14177.9 14195.3
7999.77 14247 14145.3
8002.51 14011 14213.6
8005.25 14382.9 14228.7
8007.99 14292.2 14268.8
8010.72 14131.3 14067.9
8013.46 13780.3 13784.3
8016.2 13441.4 13679.7
8018.94 13817.5 13651.6
8021.67 13695.9 13697.9
8024.41 13580.4 13497.5
8027.15 13216.2 13441.7
8029.89 13528.7 13413.3
8032.62 13494.9 13539.5
8035.36 13595 13516.3
8038.1 13459 13487.2
8040.83 13407.5 13406.9
8043.57 13354.1 13341.7
8046.3 13263.6 13324.7
8049.04 13356.4 13284.1
8051.77 13232.1 13210.5
8054.51 13043 13096.1
8057.24 13013.3 13072.5
8059.98 13161.1 13104.8
8062.71 13140.1 13142.1
8065.44 13125 13125.3
8068.18 13110.7 13076.7
8070.91 12994.4 12991.9
8073.65 12870.8 12881.4
8076.38 12779.2 12793.3
8079.11 12730 12821.4
8081.84 12955 12734.6
8084.58 12518.8 12777.8
8087.31 12859.7 12659.4
8090.04 12599.7 12654.5
8092.77 12504.2 12552.1
8095.5 12552.5 12584.7
8098.24 12697.3 12586.8
8100.97 12510.6 12578
8103.7 12526.1 12483.1
8106.43 12412.6 12537.4
8109.16 12673.5 12473
8111.89 12333 12450.1
8114.62 12343.9 12265.2
8117.35 12118.8 12240.3
8120.08 12258.1 12200
8122.81 12223.2 12190.5
8125.54 12090.3 12153.5
8128.27 12147 12035.7
8130.99 11869.9 12006.7
8133.72 12003.1 11913.2
8136.45 11866.5 12022.8
8139.18 12198.8 11964.8
8141.91 11829.1 11847.2
8144.63 11513.7 11568.7
8147.36 11363.2 11484.4
8150.09 11576.2 11412.1
8152.82 11296.9 11425.1
8155.54 11402.1 11312.6
8158.27 11238.9 11275.7
8161 11186.1 11220.6
8163.72 11236.6 11173.6
8166.45 11098 11209.7
8169.17 11294.4 11207
8171.9 11228.6 11203.9
8174.62 11088.9 11127.4
8177.35 11064.9 10997.6
8180.07 10839 10950.8
8182.8 10948.4 10942.5
8185.52 11040 10970.4
8188.25 10922.9 10899.7
8190.97 10736.1 10743
8193.69 10570.1 10580.2
8196.42 10434.3 10507.9
8199.14 10519.3 10568.8
8201.86 10752.8 10739.3
8204.59 10945.9 10893.3
8207.31 10981.3 10965.5
8210.03 10969.3 10953.2
8212.75 10909 10937.3
8215.47 10933.7 10864.7
8218.2 10751.4 10772.4
8220.92 10632 10629.3
8223.64 10504.6 10458.7
8226.36 10239.6 10330.2
8229.08 10246.3 10405.3
8231.8 10730 10531.6
8234.52 10618.4 10730.3
8237.24 10842.4 10782.9
8239.96 10888 10845.5
8242.68 10806.1 10919.4
8245.4 11064.1 10907
8248.12 10850.7 10847.3
8250.84 10627.1 10739.7
8253.56 10741.3 10661.9
8256.27 10617.2 10691.9
8258.99 10717.3 10766.3
8261.71 10964.4 10824.8
8264.43 10792.7 10912.8
8267.15 10981.3 10852.3
8269.86 10782.7 10803.5
8272.58 10646.5 10700.3
8275.3 10671.6 10660.7
8278.01 10664 10653.3
8280.73 10624.2 10653.7
8283.45 10672.9 10582
8286.16 10449 10510.6
8288.88 10410 10484
8291.59 10592.9 10519.8
8294.31 10556.5 10616.1
8297.02 10699 10589.8
8299.74 10513.8 10558.6
8302.45 10463.1 10482
8305.17 10469.2 10561.2
8307.88 10751.4 10582.6
8310.6 10527.3 10637.5
8313.31 10633.8 10639.1
8316.02 10756.2 10622.7
8318.74 10478.2 10575.7
8321.45 10492.7 10458.8
8324.16 10405.4 10430.8
8326.88 10394.3 10387.2
8329.59 10362 10373.2
8332.3 10363.4 10320.7
8335.01 10236.7 10284.6
8337.72 10253.8 10226.3
8340.43 10188.5 10264.8
8343.15 10352.2 10230.1
8345.86 10149.5 10293.2
8348.57 10378 10289.3
8351.28 10340.2 10419.3
8353.99 10539.6 10431.8
8356.7 10415.5 10452.2
8359.41 10401.6 10417.5
8362.12 10435.4 10465
8364.83 10558.1 10439
8367.54 10323.6 10408.2
8370.25 10342.8 10329.5
8372.95 10322.2 10337.7
8375.66 10348 10334.2
8378.37 10332.3 10337.7
8381.08 10332.9 10359.6
8383.79 10413.7 10301.6
8386.49 10158.1 10246.1
8389.2 10166.4 10185.2
8391.91 10231.2 10189
8394.62 10169.3 10214.4
8397.32 10242.8 10160.9
8400.03 10070.4 10179.3
8402.73 10224.7 10232.4
8405.44 10402 10306.5
8408.15 10292.7 10335.4
8410.85 10311.4 10293.4
8413.56 10276.1 10331.6
8416.26 10407.2 10322.9
8418.97 10285.3 10364.1
8421.67 10399.7 10304.5
8424.38 10228.5 10273.4
8427.08 10192.2 10189.6
8429.78 10148.2 10134.9
8432.49 10064.4 10084.6
8435.19 10041.3 10089
8437.89 10161.3 10064
8440.6 9989.42 10039.3
8443.3 9967.28 9932.69
8446 9841.36 9920.19
8448.7 9951.93 9942.38
8451.41 10033.9 10028
8454.11 10098.1 10072.8
8456.81 10086.6 10140.9
8459.51 10238.1 10171.4
8462.21 10189.6 10080.4
8464.91 9813.55 9938.61
8467.61 9812.69 9835.91
8470.31 9881.49 9845.76
8473.01 9843.1 9907.36
8475.71 9997.48 9975.27
8478.41 10085.2 10083.4
8481.11 10167.4 10144.3
8483.81 10180.3 10173.9
8486.51 10174.1 10135.3
8489.21 10051.5 10049.6
8491.91 9923.36 9939.1
8494.61 9842.43 9740.31
8497.3 9455.13 9538.71
8500 9318.56 9395.54
8502.7 9412.92 9415.75
8505.4 9515.77 9571.58
8508.09 9786.05 9766.69
8510.79 9998.26 9918.67
8513.49 9971.7 9943.83
8516.18 9861.52 9939.38
8518.88 9984.92 9973.95
8521.58 10075.4 10042.6
8524.27 10067.4 10071.2
8526.97 10070.8 10102.5
8529.66 10169.3 10053.6
8532.36 9920.59 9985.09
8535.05 9865.38 9811.15
8537.75 9647.48 9557.43
8540.44 9159.44 9226.05
8543.14 8871.22 8997.47
8545.83 8961.76 9064.87
8548.52 9361.62 9325.93
8551.22 9654.41 9598.34
8553.91 9778.98 9695.43
8556.6 9652.91 9807.22
8559.3 9989.77 9910.33
8561.99 10088.3 10082
8564.68 10167.8 10152.9
8567.37 10202.4 10196.8
8570.06 10220.2 10156.4
8572.76 10046.6 10069.9
8575.45 9943.09 10003.1
8578.14 10019.8 10070
8580.83 10247 10075.2
8583.52 9958.75 10041.6
8586.21 9919.05 9906.35
8588.9 9841.24 9796.36
8591.59 9628.78 9658.1
8594.28 9504.28 9467.45
8596.97 9269.28 9318.33
8599.66 9181.43 9219.76
8602.35 9208.58 9260.01
8605.04 9390.01 9364.61
8607.72 9495.24 9530.1
8610.41 9705.05 9616.43
8613.1 9648.99 9781.95
8615.79 9991.81 9853.29
8618.47 9919.08 9975.36
8621.16 10015.2 9996.24
8623.85 10054.5 10051.7
8626.54 10085.5 10156.2
8629.22 10328.7 10170.3
8631.91 10096.7 10231.6
8634.59 10269.3 10186.5
8637.28 10193.5 10211.6
8639.97 10171.9 10125
8642.65 10009.7 10022.1
8645.34 9884.65 9974.55
8648.02 10029.3 9848.47
8650.71 9631.44 9785.5
8653.39 9695.75 9595.3
8656.07 9458.72 9529.32
8658.76 9433.51 9185.55
8661.44 8664.42 8823.84
8664.13 8373.6 8406.02
8666.81 8180.04 8320.03
8669.49 8406.45 8477.33
8672.17 8845.5 8736.28
8674.86 8956.88 8916.27
8677.54 8946.44 9014.7
8680.22 9140.78 9147.85
8682.9 9356.33 9352.47
8685.58 9560.29 9528.62
8688.27 9669.26 9649.26
8690.95 9718.23 9659.96
8693.63 9592.38 9696.91
8696.31 9780.12 9728.31
8698.99 9812.43 9823.7
8701.67 9878.56 9942.48
8704.35 10136.4 10015.8
8707.03 10032.5 10075.3
8709.71 10057.1 9974.1
8712.39 9832.73 9925.46
8715.06 9886.56 9855.76
8717.74 9847.98 9854.38
8720.42 9828.6 9898.54
8723.1 10019 9924.46
8725.78 9925.74 9977.71
8728.46 9988.34 9937.79
8731.13 9899.3 9847.1
8733.81 9653.68 9758.64
8736.49 9722.96 9585.41
8739.16 9379.6 9411.92
8741.84 9133.21 9178.97
8744.52 9024.11 9021.96
8747.19 8908.57 8775.11
8749.87 8392.64 8513.69
8752.54 8239.86 8297.32
8755.22 8259.46 8324.88
8757.89 8475.32 8506.97
8760.57 8786.12 8731.34
8763.24 8932.58 8959.8
8765.92 9160.7 9188.82
8768.59 9473.19 9394.39
8771.27 9549.28 9537.95
8773.94 9591.38 9511.57
8776.61 9394.04 9595.87
8779.29 9802.18 9652.28
8781.96 9760.63 9769.42
8784.63 9745.44 9890.48
8787.3 10165.4 9858.16
8789.98 9663.67 9799.23
8792.65 9568.64 9672.88
8795.32 9786.32 9711.32
8797.99 9779.01 9780.28
8800.66 9775.5 9815.39
8803.33 9891.68 9803.34
8806 9742.84 9756.92
8808.67 9636.24 9652.18
8811.34 9577.45 9674.54
8814.01 9809.94 9698.74
8816.68 9708.81 9671.2
8819.35 9494.86 9575.55
8822.02 9522.99 9516.92
8824.69 9532.91 9490.08
8827.36 9414.34 9480.56
8830.03 9494.42 9513.63
8832.7 9632.14 9514.04
8835.36 9415.57 9450.41
8838.03 9303.53 9297.19
8840.7 9172.46 9182.66
8843.37 9072 9129.31
8846.03 9143.46 9120.59
8848.7 9146.31 9133.52
8851.37 9110.79 9018.74
8854.03 8799.12 8764.7
8856.7 8384.19 8416.57
8859.36 8066.41 7972.37
8862.03 7466.51 7631.66
8864.7 7362.06 7351.65
8867.36 7226.39 7364.92
8870.03 7506.3 7567.06
8872.69 7968.48 7889.67
8875.35 8194.22 8259.09
8878.02 8614.57 8473.72
8880.68 8612.39 8643.1
8883.35 8702.34 8645.9
8886.01 8622.99 8687.27
8888.67 8736.48 8727.75
8891.33 8823.78 8830.5
8894 8931.24 8909.01
8896.66 8972.01 9021
8899.32 9159.76 9079.51
8901.98 9106.77 9069.41
8904.64 8941.71 9010.49
8907.31 8982.99 8952.08
8909.97 8931.53 8985.64
8912.63 9042.4 9018.77
8915.29 9082.37 9086.02
8917.95 9133.3 9086.17
8920.61 9042.85 9057.7
8923.27 8996.95 8960.68
8925.93 8842.23 8845.09
8928.59 8696.11 8764.42
8931.25 8754.92 8715.44
8933.91 8695.29 8791.7
8936.56 8924.88 8853.31
8939.22 8939.76 8922.95
8941.88 8904.2 8942.24
8944.54 8982.77 8863.79
8947.2 8704.39 8758.66
8949.85 8588.84 8609.45
8952.51 8535.13 8582.79
8955.17 8624.41 8602.06
8957.82 8646.64 8659.91
8960.48 8708.67 8648.31
8963.14 8589.6 8531.63
8965.79 8296.61 8412.7
8968.45 8351.9 8291.75
8971.1 8226.75 8258.92
8973.76 8198.12 8194.05
8976.41 8157.29 8197.31
8979.07 8236.52 8190.53
8981.72 8177.8 8194.08
8984.38 8167.94 8131.45
8987.03 8048.63 8017.87
8989.69 7837.05 7829.27
8992.34 7602.13 7650.32
8994.99 7511.79 7568.8
8997.64 7592.48 7571.97
9000.3 7611.65 7536.2
9002.95 7404.48 7387.39
9005.6 7146.03 7227.7
9008.25 7132.58 7109.59
9010.91 7050.14 6977.45
9013.56 6749.62 6700.97
9016.21 6303.13 6365.33
9018.86 6043.25 6126.12
9021.51 6031.99 6153.47
9024.16 6385.16 6342.32
9026.81 6609.81 6628.45
9029.46 6890.39 6879.09
9032.11 7137.07 7180.39
9034.76 7513.7 7430.53
9037.41 7640.81 7602.21
9040.06 7652.12 7645.39
9042.71 7643.25 7683.02
9045.35 7753.69 7706.84
9048 7723.58 7705.79
9050.65 7640.09 7779.55
9053.3 7974.97 7775.35
9055.95 7710.99 7825.18
9058.59 7789.57 7758.31
9061.24 7774.36 7713.18
9063.89 7575.61 7499.73
9066.53 7149.21 7304.65
9069.18 7189.13 6742.09
9071.82 5887.94 5829.57
9074.47 4411.64 3433.19
