wavelength spectrum_sum 3smoothed_sum
3508.76 1703.73 1411.47
3511.67 2530.69 2377.35
3514.58 2897.62 2859.95
3517.48 3151.55 3067.78
3520.39 3154.18 3145.13
3523.3 3129.66 3162.27
3526.21 3202.98 3178.67
3529.11 3203.38 3261.08
3532.02 3376.89 3293.64
3534.93 3300.65 3375.61
3537.84 3449.3 3402.48
3540.74 3457.47 3503.67
3543.65 3604.23 3599.81
3546.56 3737.74 3722.48
3549.47 3825.48 3801.42
3552.37 3841.05 3828.82
3555.28 3819.94 3832.19
3558.19 3835.56 3829.75
3561.09 3833.73 3888.34
3564 3995.71 3858.24
3566.91 3745.27 3845.38
3569.82 3795.17 3743.5
3572.73 3690.06 3785.35
3575.63 3870.81 3772.05
3578.54 3755.29 3858.25
3581.45 3948.66 3872.43
3584.36 3913.33 3904.84
3587.26 3852.53 3996.6
3590.17 4223.94 4036.35
3593.08 4032.58 4103.45
3595.99 4053.83 4119.19
3598.89 4271.17 4201.76
3601.8 4280.28 4266.1
3604.71 4246.86 4265.71
3607.62 4269.98 4308.23
3610.53 4407.85 4374.06
3613.43 4444.35 4505.88
3616.34 4665.44 4604.37
3619.25 4703.33 4742.31
3622.16 4858.17 4893.2
3625.06 5118.11 4931.64
3627.97 4818.64 4896.3
3630.88 4752.16 4903.03
3633.79 5138.3 5086.92
3636.7 5370.3 5274.36
3639.6 5314.47 5284.7
3642.51 5169.34 5386.42
3645.42 5675.46 5440.6
3648.33 5477 5652.06
3651.24 5803.71 5686.54
3654.14 5778.89 5783.63
3657.05 5768.27 5746.22
3659.96 5691.48 5765.02
3662.87 5835.3 5844.31
3665.78 6006.16 6004.46
3668.69 6171.94 6046.25
3671.59 5960.65 5974.16
3674.5 5789.89 5943.79
3677.41 6080.83 5931.33
3680.32 5923.27 6055.67
3683.23 6162.92 6070.93
3686.13 6126.61 6248.3
3689.04 6455.37 6375.1
3691.95 6543.31 6474.65
3694.86 6425.26 6500.91
3697.77 6534.17 6451.17
3700.68 6394.07 6522.2
3703.58 6638.34 6619.07
3706.49 6824.78 6850.57
3709.4 7088.6 7130.94
3712.31 7479.44 7349.43
3715.22 7480.26 7359.11
3718.13 7117.64 7437.4
3721.03 7714.31 7486.38
3723.94 7627.2 7697.18
3726.85 7750.02 7696.59
3729.76 7712.56 7650.19
3732.67 7487.98 7826.36
3735.58 8278.55 8208.03
3738.49 8857.55 8585.84
3741.39 8621.44 8581.96
3744.3 8266.88 8360.34
3747.21 8192.68 8420.45
3750.12 8801.79 8781.57
3753.03 9350.24 9194.83
3755.94 9432.46 9638.36
3758.84 10132.4 9754.96
3761.75 9700.04 9731.65
3764.66 9362.5 9457.3
3767.57 9309.36 9518.07
3770.48 9882.34 10005.6
3773.39 10825.1 10777.6
3776.3 11625.4 11608.8
3779.2 12376 12067.9
3782.11 12202.3 12350.2
3785.02 12472.4 12288.8
3787.93 12191.8 12079.5
3790.84 11574.2 11606.2
3793.75 11052.5 11298.4
3796.66 11268.5 11458.6
3799.56 12055 12117.3
3802.47 13028.4 13019.9
3805.38 13976.4 13821.9
3808.29 14460.7 14541.7
3811.2 15187.8 15171
3814.11 15864.5 15618.2
3817.02 15802.2 15769.2
3819.93 15641 15517.1
3822.83 15108.1 14995.9
3825.74 14238.5 13989
3828.65 12620.3 12985.3
3831.56 12097.2 12373.5
3834.47 12403 12516.1
3837.38 13048.2 13104.5
3840.29 13862.3 14051.8
3843.19 15244.8 15073.9
3846.1 16114.6 16119.8
3849.01 17000.1 16999.7
3851.92 17884.4 17961.7
3854.83 19000.8 18872.5
3857.74 19732.3 19578.6
3860.65 20002.7 19930.6
3863.56 20056.7 20129.3
3866.46 20328.6 20119.8
3869.37 19974 19969.5
3872.28 19606 19504
3875.19 18932 18724.1
3878.1 17634.4 17556.5
3881.01 16103 16194.2
3883.92 14845.1 15063.1
3886.83 14241.2 14654.6
3889.73 14877.4 14834.6
3892.64 15385.2 15611.5
3895.55 16572 16480.5
3898.46 17484.2 17393.3
3901.37 18123.7 18271.2
3904.28 19205.7 19256.8
3907.19 20441.1 20335.1
3910.1 21358.5 21304
3913 22112.4 22060.3
3915.91 22709.9 22810.1
3918.82 23607.9 23523.2
3921.73 24251.8 23991.2
3924.64 24113.9 23666.4
3927.55 22633.4 22931.9
3930.46 22048.5 22516.1
3933.36 22866.5 22800.5
3936.27 23486.6 23384.7
3939.18 23800.9 23751.8
3942.09 23967.9 23895.7
3945 23918.4 23790
3947.91 23483.8 23596.4
3950.82 23387.1 23329
3953.73 23116.1 23208.8
3956.63 23123.1 22577.4
3959.54 21493 21258.9
3962.45 19160.7 19298.5
3965.36 17241.9 17700.9
3968.27 16700 17155.8
3971.18 17525.4 17671.4
3974.09 18788.9 18838.8
3976.99 20202.1 20171.4
3979.9 21523.3 20874.9
3982.81 20899.3 21494.6
3985.72 22061.3 21834.2
3988.63 22542.1 22700.6
3991.54 23498.6 23531.1
3994.45 24552.7 24542.4
3997.36 25575.9 25331.4
4000.26 25865.4 26085.5
4003.17 26815.1 26612.7
4006.08 27157.6 27418.5
4008.99 28282.9 28113.1
4011.9 28898.9 28911.2
4014.81 29551.7 29417.9
4017.72 29803.2 29752.9
4020.62 29903.6 29993.7
4023.53 30274.3 30164.4
4026.44 30315.3 30236.1
4029.35 30118.6 30423.1
4032.26 30835.3 30579.8
4035.17 30785.5 30830.4
4038.08 30870.4 30591.8
4040.98 30119.4 30400.3
4043.89 30210.9 30352.8
4046.8 30727.9 30673.9
4049.71 31082.8 30796
4052.62 30577.4 30885.3
4055.53 30995.7 30831
4058.43 30920 30819.6
4061.34 30543.1 30718.8
4064.25 30693.4 30482.7
4067.16 30211.6 30059
4070.07 29272 29182.4
4072.98 28063.6 28399.5
4075.88 27862.7 27966
4078.79 27971.7 27891.2
4081.7 27839.3 27870
4084.61 27799 27731.5
4087.52 27556.3 27242.6
4090.43 26372.5 26252.9
4093.33 24829.8 24550.6
4096.24 22449.4 22758.3
4099.15 20995.6 21596.4
4102.06 21344.1 21582.9
4104.97 22408.8 22530.9
4107.88 23839.8 23843.3
4110.78 25281.3 25024.9
4113.69 25953.6 25903.9
4116.6 26476.8 26659.1
4119.51 27546.7 27356.4
4122.42 28045.7 28204.3
4125.33 29020.3 28860.3
4128.23 29515 29716
4131.14 30612.8 30698.6
4134.05 31968 31798
4136.96 32813.4 32791.9
4139.87 33594.3 33346.6
4142.77 33632.1 33762.1
4145.68 34059.8 33914
4148.59 34049.9 34108.3
4151.5 34215.3 34468.7
4154.41 35140.9 35004.1
4157.31 35656.3 35505.7
4160.22 35720 35852
4163.13 36179.6 36096.4
4166.04 36389.7 36309
4168.95 36357.8 36221.4
4171.85 35916.7 35960.6
4174.76 35607.2 35870.8
4177.67 36088.4 36113.1
4180.58 36643.8 36428.8
4183.48 36554.2 36667.7
4186.39 36805.1 36877.3
4189.3 37272.6 36833.5
4192.21 36422.8 36736.9
4195.12 36515.4 36537.7
4198.02 36674.8 36692.2
4200.93 36886.4 37089.1
4203.84 37706 37641.3
4206.75 38331.5 38316.7
4209.65 38912.7 38711.2
4212.56 38889.4 38999.4
4215.47 39196 39189.5
4218.38 39483.1 39324.9
4221.28 39295.6 39180.1
4224.19 38761.6 39241.7
4227.1 39667.9 39439.7
4230.01 39889.6 39742
4232.91 39668.5 39635.1
4235.82 39347.1 39577
4238.73 39715.3 39807.5
4241.64 40360.1 40109.9
4244.54 40254.5 40323.2
4247.45 40354.9 40499.9
4250.36 40890.2 40919.7
4253.27 41514.1 41428.3
4256.17 41880.7 41688.9
4259.08 41671.7 41967.8
4261.99 42350.9 42303.3
4264.9 42887.2 42397
4267.8 41952.8 42438.7
4270.71 42476 42376.8
4273.62 42701.8 42743.2
4276.52 43051.9 43083.9
4279.43 43498 43207.8
4282.34 43073.6 43201.5
4285.25 43032.9 42896.1
4288.15 42581.9 42830.9
4291.06 42877.8 42487
4293.97 42001.2 42054.1
4296.87 41283.3 41178.6
4299.78 40251.2 40667.4
4302.69 40467.7 40544.6
4305.59 40914.9 40700.9
4308.5 40720.1 40912
4311.41 41101 41211.6
4314.32 41813.6 41530
4317.22 41675.4 41505.8
4320.13 41028.4 40932
4323.04 40092.3 39973.7
4325.94 38800.5 38645.3
4328.85 37043.1 36832.3
4331.76 34653.3 34225.1
4334.66 30978.8 31622.5
4337.57 29235.4 29761.6
4340.48 29070.5 29606.6
4343.38 30514 30495.1
4346.29 31901 32112.8
4349.19 33923.6 33887.3
4352.1 35837.3 35638.9
4355.01 37155.9 37203.7
4357.91 38617.8 38686.7
4360.82 40286.5 40119
4363.73 41452.8 41454.4
4366.63 42623.9 42548
4369.54 43567.3 43750.8
4372.45 45061.2 44604.8
4375.35 45185.8 45365.8
4378.26 45850.3 45585.8
4381.16 45721.2 45798.9
4384.07 45825.1 45831.9
4386.98 45949.3 46037.7
4389.88 46338.6 46246.2
4392.79 46450.8 46338.6
4395.69 46226.5 46427.2
4398.6 46604.3 46797.2
4401.51 47561 47373.9
4404.41 47956.6 47912.1
4407.32 48218.8 48084
4410.22 48076.6 47966
4413.13 47602.5 47926.2
4416.04 48099.5 47879.6
4418.94 47936.7 48429.7
4421.85 49252.7 48579.4
4424.75 48548.8 48807.8
4427.66 48621.7 48763.2
4430.56 49119 48946.6
4433.47 49099 49304.5
4436.38 49695.5 49279.1
4439.28 49042.8 49096.8
4442.19 48552.1 48717.5
4445.09 48557.7 48538.6
4448 48506.2 48439.3
4450.9 48254.2 48243.7
4453.81 47970.9 48073.9
4456.71 47996.6 47836.3
4459.62 47541.4 47817.4
4462.52 47914.2 47576.7
4465.43 47274.4 47529
4468.33 47398.4 47860.1
4471.24 48907.4 48571.4
4474.14 49408.5 49218.8
4477.05 49340.7 49251.9
4479.95 49006.6 49297.9
4482.86 49546.4 49507.4
4485.76 49969.3 49854.9
4488.67 50048.9 50260.5
4491.57 50763.4 50627.5
4494.48 51070.3 51217.3
4497.38 51818.2 51750.6
4500.29 52363.3 52249.4
4503.19 52566.6 52677.9
4506.1 53103.8 52934.9
4509 53134.4 53097.8
4511.91 53055.1 52883.6
4514.81 52461.2 52450.6
4517.72 51835.5 51795.7
4520.62 51090.5 51002.1
4523.53 50080.3 50496.1
4526.43 50317.6 50488.8
4529.33 51068.6 51022.3
4532.24 51680.5 51519.7
4535.14 51809.9 51850.1
4538.05 52059.7 52008.3
4540.95 52155.4 52077.5
4543.86 52017.5 51895.3
4546.76 51512.9 51386.2
4549.66 50628.1 50686.3
4552.57 49917.9 50222
4555.47 50119.9 50396.5
4558.38 51151.6 51069.5
4561.28 51937 51989.3
4564.18 52879.3 52559.6
4567.09 52862.5 53083.1
4569.99 53507.5 53393.2
4572.9 53809.7 53538.6
4575.8 53298.6 53573.7
4578.7 53612.7 53480.1
4581.61 53529 53718.4
4584.51 54013.5 53860.8
4587.41 54040.1 54049.5
4590.32 54094.9 54036.4
4593.22 53974.3 54333
4596.12 54929.8 54716.6
4599.03 55245.8 54981.4
4601.93 54768.5 54990.7
4604.83 54957.9 55081.8
4607.74 55519 55423.1
4610.64 55792.5 55734.1
4613.54 55890.9 55734.6
4616.45 55520.5 55931
4619.35 56381.7 56165.6
4622.25 56594.6 56472.8
4625.16 56442 56579.1
4628.06 56700.8 56611.3
4630.96 56691.2 56562
4633.87 56293.9 56536.6
4636.77 56624.7 56537.4
4639.67 56693.7 56747.3
4642.57 56923.4 56577.3
4645.48 56114.8 56511
4648.38 56494.9 56403
4651.28 56599.2 56757.6
4654.18 57178.7 56993.9
4657.09 57203.8 57239.8
4659.99 57336.8 56863.9
4662.89 56051.2 56256.4
4665.79 55381.3 55822.9
4668.7 56036.2 55955.1
4671.6 56447.9 56454.5
4674.5 56879.5 56878.8
4677.4 57309 56960
4680.3 56691.5 57085.8
4683.21 57256.9 57135.3
4686.11 57457.5 57427.9
4689.01 57569.2 57619.5
4691.91 57831.7 57733.8
4694.81 57800.4 57756.5
4697.72 57637.6 57699.8
4700.62 57661.3 57281.7
4703.52 56546.3 57255
4706.42 57557.3 57020.3
4709.32 56957.4 57217.4
4712.22 57137.4 57196.7
4715.13 57495.4 57504.1
4718.03 57879.6 57831.3
4720.93 58118.9 58035.2
4723.83 58107 57860.7
4726.73 57356.1 57693.7
4729.63 57618 57551.9
4732.53 57681.5 57559.7
4735.44 57379.6 57505.4
4738.34 57455.1 57545.5
4741.24 57801.7 57721.5
4744.14 57907.6 57901.3
4747.04 57994.7 57979
4749.94 58034.6 57985.4
4752.84 57926.9 57865.6
4755.74 57635.3 57839.9
4758.64 57957.6 57779.9
4761.54 57746.7 57978.2
4764.44 58230.3 58140.6
4767.34 58444.8 58425.5
4770.25 58601.5 58624.5
4773.15 58827.3 58575.5
4776.05 58297.8 58583.8
4778.95 58626.4 58456.6
4781.85 58445.6 58364.2
4784.75 58020.7 58210.6
4787.65 58165.4 58288.9
4790.55 58680.5 58408.9
4793.45 58380.7 58549.8
4796.35 58588.2 58429.1
4799.25 58318.5 58385.5
4802.15 58249.9 58127.7
4805.05 57814.6 57805.5
4807.95 57352.1 57518.2
4810.85 57387.9 57385.9
4813.75 57417.8 57310.7
4816.65 57126.4 56956.9
4819.55 56326.6 56327.5
4822.45 55529.5 55809.6
4825.34 55572.8 55638.7
4828.24 55813.9 55480.5
4831.14 55054.8 55196.5
4834.04 54720.6 54580.3
4836.94 53965.5 54038.1
4839.84 53428.1 53069
4842.74 51813.2 51663.6
4845.64 49749.5 49757.1
4848.54 47708.7 47368.3
4851.44 44646.8 44421.8
4854.34 40910 40861.5
4857.24 37027.7 37964.6
4860.13 35956 36380.7
4863.03 36158.4 36685.8
4865.93 37942.9 38013.7
4868.83 39939.6 39971.1
4871.73 42030.8 41885
4874.63 43684.8 43847
4877.53 45825.5 45433.2
4880.42 46789.3 46876.4
4883.32 48014.4 48042.7
4886.22 49324.3 49285.9
4889.12 50518.8 50689.1
4892.02 52224.3 51939.6
4894.91 53075.8 53070.8
4897.81 53912.5 53685.3
4900.71 54067.7 54438.3
4903.61 55334.6 54953.8
4906.51 55459 55424.6
4909.4 55480.1 55661.7
4912.3 56046.1 55526
4915.2 55051.7 54994.3
4918.1 53885.1 54466
4920.99 54461.1 54395.9
4923.89 54841.5 55056.1
4926.79 55865.8 55495.9
4929.69 55780.3 55778
4932.58 55688 55692.1
4935.48 55608.1 55974.5
4938.38 56627.6 56477.1
4941.27 57195.7 57098.3
4944.17 57471.6 57635.2
4947.07 58238.3 58152.1
4949.97 58746.5 58315.1
4952.86 57960.5 58318.1
4955.76 58247.2 58308.4
4958.66 58717.4 58651.3
4961.55 58989.2 58945.5
4964.45 59129.9 59059.8
4967.35 59060.4 59233
4970.24 59508.8 59452.4
4973.14 59788.1 59449.5
4976.03 59051.5 58936.7
4978.93 57970.4 58021.9
4981.83 57043.7 57512.1
4984.72 57522.3 57499.2
4987.62 57931.6 57960.5
4990.51 58427.7 58265
4993.41 58435.8 58347
4996.31 58177.6 58209
4999.2 58013.6 57906
5002.1 57526.8 57662.6
5004.99 57447.4 57689.5
5007.89 58094.4 57749
5010.78 57705.2 57837
5013.68 57711.5 57755.7
5016.58 57850.5 57896.6
5019.47 58127.7 58332.4
5022.37 59019 58697.8
5025.26 58946.7 59110.4
5028.16 59365.4 59232
5031.05 59384 59352.9
5033.95 59309.2 59162.8
5036.84 58795.2 59040.2
5039.74 59016.1 59077.3
5042.63 59420.7 59371
5045.53 59676 59591.9
5048.42 59678.9 59723.5
5051.31 59815.5 60123.5
5054.21 60876 60637.8
5057.1 61221.8 61194.2
5060 61484.7 61190.3
5062.89 60864.4 61044.6
5065.79 60784.6 60592.9
5068.68 60129.6 60270.2
5071.57 59896.3 59675.8
5074.47 59001.5 59199.8
5077.36 58701.5 58790.2
5080.26 58667.5 58803.3
5083.15 59041 59146.4
5086.04 59730.6 59557.3
5088.94 59900.4 59803
5091.83 59777.9 59765.1
5094.72 59616.9 59538.9
5097.62 59221.8 59466.1
5100.51 59559.8 59549.7
5103.4 59867.6 59857.9
5106.3 60146.3 60142.6
5109.19 60414 60179
5112.08 59976.5 60168.3
5114.98 60114.4 60064
5117.87 60101.2 59849.5
5120.76 59332.9 59204.8
5123.65 58180.3 58674.3
5126.55 58509.7 58409.4
5129.44 58538.2 58531.1
5132.33 58545.4 58567.3
5135.22 58618.3 58595.1
5138.12 58621.6 58698.8
5141.01 58856.5 58873.4
5143.9 59142.1 59110.8
5146.79 59333.7 59451.6
5149.68 59879 59532.2
5152.58 59383.9 59654.3
5155.47 59700.1 59531.1
5158.36 59509.5 59409.2
5161.25 59017.9 58830
5164.14 57962.6 56025.8
5167.03 51096.7 53344.9
5169.93 50975.4 51426.2
5172.82 52206.4 51977.9
5175.71 52752 52475.9
5178.6 52469.5 52404.7
5181.49 51992.5 52019
5184.38 51594.9 51559
5187.27 51089.4 51276.4
5190.16 51145 51073.3
5193.06 50985.6 50880.8
5195.95 50512 50762.4
5198.84 50789.7 50588.1
5201.73 50462.6 50682.3
5204.62 50794.6 50916.3
5207.51 51491.8 51468.1
5210.4 52117.9 52017.6
5213.29 52443.2 52463.8
5216.18 52830.3 52772.3
5219.07 53043.3 52833.1
5221.96 52625.6 52509.9
5224.85 51860.7 52049.2
5227.74 51661.3 51604.5
5230.63 51291.6 51689.1
5233.52 52114.5 51894.7
5236.41 52278 52507.9
5239.3 53131.2 53086.7
5242.19 53850.9 53455
5245.08 53383 53501.1
5247.97 53269.5 53318.1
5250.86 53302 53229.8
5253.75 53117.9 53056.2
5256.63 52748.8 52874.3
5259.52 52756.2 52186.4
5262.41 51054 51502.8
5265.3 50698.2 50638.9
5268.19 50164.4 50190.3
5271.08 49708.3 50251
5273.97 50880.3 50475.4
5276.86 50837.6 50988.5
5279.74 51247.7 51336.4
5282.63 51924.1 51935.6
5285.52 52634.9 52434.8
5288.41 52745.3 52747.4
5291.3 52861.9 52720
5294.19 52552.8 52797.7
5297.07 52978.4 52903.3
5299.96 53178.6 53145.8
5302.85 53280.4 53422.4
5305.74 53808.3 53554.3
5308.62 53574.3 53506.5
5311.51 53137 53176.1
5314.4 52816.9 52885.6
5317.29 52702.8 52759.2
5320.17 52758 52425.4
5323.06 51815.3 52129.5
5325.95 51815.2 51745
5328.83 51604.5 51847.2
5331.72 52121.9 52015.5
5334.61 52320.3 52164
5337.5 52049.7 52220.3
5340.38 52290.8 52425.2
5343.27 52935.2 52891.9
5346.15 53449.7 53352.8
5349.04 53673.6 53684.7
5351.93 53930.6 53919.6
5354.81 54154.5 54057
5357.7 54085.9 53829.4
5360.59 53247.7 53405.1
5363.47 52881.7 52803.9
5366.36 52282.4 52432.3
5369.24 52132.8 52461.8
5372.13 52970.1 52794.5
5375.01 53280.6 53047.9
5377.9 52892.9 53047.3
5380.79 52968.5 53003.1
5383.67 53148 53316.9
5386.56 53834.2 53476.5
5389.44 53447.1 53644.2
5392.33 53651.1 53313.4
5395.21 52841.9 53022.9
5398.1 52575.7 52366
5400.98 51680.5 51919.9
5403.87 51503.6 51674.7
5406.75 51840 51726.5
5409.64 51835.8 52056.5
5412.52 52493.7 52455.8
5415.4 53038 52867.6
5418.29 53071.2 53007.5
5421.17 52913.3 52820.6
5424.06 52477.1 52707.9
5426.94 52733.1 52691.2
5429.82 52863.2 52998.3
5432.71 53398.4 53278.1
5435.59 53572.8 53796.1
5438.48 54417 53852.5
5441.36 53567.7 53841.1
5444.24 53538.5 53650.9
5447.13 53846.6 53739.3
5450.01 53832.8 53890.3
5452.89 53991.4 53660.9
5455.78 53158.5 53598.5
5458.66 53645.6 53501
5461.54 53698.9 53684.1
5464.42 53707.9 53772.7
5467.31 53911.2 53742.9
5470.19 53609.7 53299.1
5473.07 52376.5 52885.8
5475.95 52671.2 52628.9
5478.84 52838.9 52954.8
5481.72 53354.4 53361.3
5484.6 53890.5 53813.4
5487.48 54195.2 54147.9
5490.36 54357.9 54259.1
5493.25 54224.2 54183.1
5496.13 53967.3 53952.8
5499.01 53666.8 53846.4
5501.89 53905.2 53588.6
5504.77 53193.8 53498.7
5507.65 53397.2 53391.5
5510.54 53583.5 53676.3
5513.42 54048.2 54139.1
5516.3 54785.7 54538.5
5519.18 54781.6 54659.4
5522.06 54410.9 54479.5
5524.94 54246 54198
5527.82 53937 54081.2
5530.7 54060.6 53886.9
5533.58 53663.1 53926.2
5536.46 54054.9 53988.3
5539.34 54246.8 54065.1
5542.22 53893.5 53893.6
5545.1 53540.4 53924
5547.98 54338 54129.8
5550.86 54510.9 54441.4
5553.74 54475.3 54618.8
5556.62 54870.2 54437.5
5559.5 53967.1 54345.3
5562.38 54198.7 54066
5565.26 54032.3 54071.6
5568.14 53983.9 53980.6
5571.02 53925.6 54023.4
5573.9 54160.7 54248.6
5576.78 54659.4 54234.4
5579.66 53883.1 54154.4
5582.53 53920.6 53685.4
5585.41 53252.5 53537.3
5588.29 53438.9 53427.3
5591.17 53590.5 53671.6
5594.05 53985.3 53719.1
5596.93 53581.6 53698.1
5599.81 53527.3 53689.7
5602.68 53960.1 53913.5
5605.56 54253 54050.3
5608.44 53937.8 54091.9
5611.32 54084.8 53833
5614.19 53476.3 53686.8
5617.07 53499.3 53526.7
5619.95 53604.5 53663.8
5622.83 53887.5 53842.9
5625.7 54036.7 54066
5628.58 54273.8 54012.9
5631.46 53728.2 53898.2
5634.34 53692.7 53690.4
5637.21 53650.4 53793.6
5640.09 54037.7 53734
5642.97 53513.9 53819.4
5645.84 53906.5 53965.5
5648.72 54476.3 53940.7
5651.6 53439.4 53604.5
5654.47 52897.7 52919.5
5657.35 52421.4 52440.9
5660.22 52003.6 52258.1
5663.1 52349.3 52353.7
5665.98 52708.2 52704.5
5668.85 53055.8 53060.5
5671.73 53417.6 53309.9
5674.6 53456.3 53452.4
5677.48 53483.4 53259.9
5680.35 52840 52992.4
5683.23 52653.7 52653.5
5686.1 52466.7 52629
5688.98 52766.7 52774.4
5691.85 53089.8 52831.1
5694.73 52636.8 52728.6
5697.6 52459.2 52522.9
5700.48 52472.7 52356.3
5703.35 52137.1 52230.3
5706.23 52081.3 52081.4
5709.1 52025.9 52074.9
5711.97 52117.6 52082.5
5714.85 52103.9 52309.3
5717.72 52706.5 52569.1
5720.6 52897 52884.5
5723.47 53050.1 52952.9
5726.34 52911.5 52856
5729.22 52606.4 52818.6
5732.09 52938 52925.7
5734.96 53232.8 53166.1
5737.84 53327.4 53132.8
5740.71 52838.4 52899.8
5743.58 52533.6 52464.1
5746.46 52020.2 52250.2
5749.33 52196.9 52005.8
5752.2 51800.3 51987.5
5755.07 51965.3 51945.5
5757.95 52070.8 51999.8
5760.82 51963.3 51802.2
5763.69 51372.4 51816.2
5766.56 52113 51787.5
5769.43 51877.1 51949.8
5772.31 51859.5 51833.7
5775.18 51764.5 51848.7
5778.05 51922.1 51614.3
5780.92 51156.3 51594.2
5783.79 51704.3 51341.9
5786.66 51165 51410.7
5789.53 51362.9 51318.7
5792.41 51428.2 51590.2
5795.28 51979.5 51607.5
5798.15 51414.7 51640.4
5801.02 51527 51417.3
5803.89 51310.1 51445.7
5806.76 51500.1 51486.1
5809.63 51648 51580.5
5812.5 51593.4 51683.8
5815.37 51809.9 51663.5
5818.24 51587.3 51620.5
5821.11 51464.3 51705.6
5823.98 52065.2 51830.2
5826.85 51961.1 52000.2
5829.72 51974.3 52079
5832.59 52301.6 52071.8
5835.46 51939.6 51995.1
5838.33 51744 51879.5
5841.2 51954.7 51962.1
5844.06 52187.6 51939.1
5846.93 51674.9 51734.6
5849.8 51341.4 51207.7
5852.67 50606.6 50964.4
5855.54 50945.2 50846.6
5858.41 50988 50875.5
5861.28 50693.3 51160.6
5864.14 51800.5 51459.5
5867.01 51884.7 51792.1
5869.88 51691.2 51860
5872.75 52004.2 51806.1
5875.62 51722.7 51681.3
5878.48 51316.9 51380.3
5881.35 51101.3 51026.7
5884.22 50661.9 50400.1
5887.09 49437.1 49808.7
5889.95 49326.9 49464.9
5892.82 49630.6 49506.7
5895.69 49562.6 49886.1
5898.55 50465.1 50061.2
5901.42 50155.9 50420.1
5904.29 50639.3 50617.6
5907.15 51057.4 50612.4
5910.02 50140.4 50742.2
5912.89 51028.8 50721.4
5915.75 50995.1 50858
5918.62 50550.2 50906.4
5921.48 51174 50833.7
5924.35 50777 50806
5927.22 50467.1 50609.1
5930.08 50583.2 50605.5
5932.95 50766.3 50536.2
5935.81 50259 50588.5
5938.68 50740.2 50475.5
5941.54 50427.3 50384
5944.41 49984.6 50184.6
5947.27 50142 50266.4
5950.14 50672.6 50413.8
5953 50426.7 50584.3
5955.87 50653.7 50421.2
5958.73 50183.2 50389
5961.59 50330.1 50283.7
5964.46 50337.8 50365.4
5967.32 50428.3 50449
5970.19 50581 50188.4
5973.05 49555.9 49956.1
5975.91 49731.4 49584.8
5978.78 49467 49577.9
5981.64 49535.4 49423.2
5984.5 49267.2 49378.1
5987.37 49331.6 49333.3
5990.23 49401 49486.8
5993.09 49727.7 49493.7
5995.95 49352.4 49685.6
5998.82 49976.8 49629.5
6001.68 49559.4 49527.8
6004.54 49047.3 49272.2
6007.4 49209.8 49158.6
6010.27 49218.6 49193.9
6013.13 49153.4 49037.9
6015.99 48741.6 48782.9
6018.85 48453.5 48533
6021.71 48403.9 48474.5
6024.58 48565.9 48633.4
6027.44 48930.3 48642.7
6030.3 48432.1 48689.8
6033.16 48706.9 48676.3
6036.02 48889.9 48885.6
6038.88 49059.8 48861
6041.74 48633.2 48727.4
6044.6 48489.1 48746.1
6047.46 49116 48796.3
6050.32 48783.9 48844.4
6053.18 48633.3 48677
6056.04 48613.9 48662.5
6058.9 48740.3 48556.6
6061.76 48315.7 48571
6064.62 48657.1 48444.3
6067.48 48360.1 48691
6070.34 49055.9 48727.2
6073.2 48765.6 48683.6
6076.06 48229.3 48415.5
6078.92 48251.7 48301.8
6081.78 48424.5 48309.9
6084.64 48253.5 48302.2
6087.5 48228.7 48277.9
6090.35 48351.5 48254.7
6093.21 48183.9 48102.7
6096.07 47772.7 47970.6
6098.93 47955.1 47782.1
6101.79 47618.6 47730.6
6104.65 47618 47729.2
6107.5 47951 47769.2
6110.36 47738.5 47864.7
6113.22 47904.4 47769.2
6116.08 47664.8 47813.5
6118.93 47871.2 47620.3
6121.79 47324.9 47471.1
6124.65 47217 47383.5
6127.5 47608.5 47121.1
6130.36 46537.8 46814.9
6133.22 46298.4 46118.8
6136.07 45520.1 45624.8
6138.93 45055.8 45521.2
6141.79 45987.7 45587.5
6144.64 45718.9 45870.5
6147.5 45904.8 45981.3
6150.36 46320 46135.5
6153.21 46181.6 46286.8
6156.07 46358.8 46340.8
6158.92 46482 46433.7
6161.78 46460.3 46415.4
6164.63 46304 46350.2
6167.49 46286.2 46294.9
6170.34 46294.3 46175.3
6173.2 45945.4 46065.4
6176.05 45956.5 45948.7
6178.91 45944.1 46047
6181.76 46240.3 46018.6
6184.62 45871.4 46062.1
6187.47 46074.6 45892.9
6190.32 45732.7 45994.7
6193.18 46176.8 46098.4
6196.03 46385.9 46272.4
6198.89 46254.4 46255.4
6201.74 46126 46253.6
6204.59 46380.3 46130.4
6207.45 45884.8 46144.1
6210.3 46167.1 45983.5
6213.15 45898.4 45920.4
6216 45695.6 44287
6218.86 41267 42643.7
6221.71 40968.5 41018.7
6224.56 40820.5 40713.3
6227.41 40351 40560
6230.27 40508.4 40373.4
6233.12 40260.7 40407.3
6235.97 40452.8 40350.2
6238.82 40337.1 40375.1
6241.67 40335.3 40243.3
6244.52 40057.5 40089
6247.38 39874.1 39978
6250.23 40002.4 39948
6253.08 39967.4 40058
6255.93 40204.2 40121.9
6258.78 40194 40264.9
6261.63 40396.6 40283.9
6264.48 40261.1 40242.9
6267.33 40070.9 40251.7
6270.18 40423.1 40129.3
6273.03 39893.9 39929.7
6275.88 39472.2 39783.1
6278.73 39983.2 39708.7
6281.58 39670.7 39710.9
6284.43 39478.9 39612.5
6287.28 39687.9 39577.9
6290.13 39567 39619.7
6292.98 39604.1 39512.6
6295.83 39366.8 39550
6298.68 39679.2 39473.9
6301.53 39375.6 39497.4
6304.37 39437.5 39489.1
6307.22 39654.2 39546.2
6310.07 39546.8 39528.6
6312.92 39384.8 39235.4
6315.77 38774.7 39233.6
6318.62 39541.4 39353.2
6321.46 39743.5 39716.9
6324.31 39865.9 39689.8
6327.16 39460.1 39578.7
6330.01 39410.1 39412
6332.85 39365.8 39431.3
6335.7 39518.2 39319.4
6338.55 39074.2 39220.3
6341.39 39068.6 39019.8
6344.24 38916.5 39091.4
6347.09 39289 39267.7
6349.93 39597.4 39352.8
6352.78 39171.8 39323.8
6355.62 39202.2 39188.4
6358.47 39191.1 39129.2
6361.32 38994.4 39147.1
6364.16 39255.9 38995.1
6367.01 38735 38898.1
6369.85 38703.4 38765.2
6372.7 38857.2 38771.4
6375.54 38753.6 38918.8
6378.39 39145.7 38866.4
6381.23 38699.9 38884.5
6384.08 38807.9 38764.5
6386.92 38785.7 38741.8
6389.77 38631.8 38627.6
6392.61 38465.2 38538.9
6395.45 38519.6 38493.1
6398.3 38494.4 38623.3
6401.14 38855.9 38531.6
6403.99 38244.4 38542.4
6406.83 38526.9 38213.2
6409.67 37868.3 38169.8
6412.52 38114.4 38002.5
6415.36 38024.7 38057.3
6418.2 38032.8 38104.4
6421.04 38255.8 38140.1
6423.89 38131.6 38074
6426.73 37834.8 37980.6
6429.57 37975.3 37905.3
6432.41 37905.7 38046.4
6435.26 38258.2 38006.6
6438.1 37855.9 37966.3
6440.94 37784.8 37960.9
6443.78 38242 38127.4
6446.62 38355.4 38101.4
6449.46 37706.8 37869.9
6452.31 37547.5 37605.2
6455.15 37561.4 37465.3
6457.99 37287 37446.2
6460.83 37490.1 37570.4
6463.67 37934.2 37709.2
6466.51 37703.4 37724.6
6469.35 37536 37722.1
6472.19 37926.9 37808.5
6475.03 37962.5 37826.3
6477.87 37589.6 37675.7
6480.71 37475 37506.7
6483.55 37455.4 37367.2
6486.39 37171.2 37065.5
6489.23 36569.8 36511.5
6492.07 35793.7 35870.9
6494.91 35249.2 35832.9
6497.74 36455.7 36101.6
6500.58 36599.8 36600.4
6503.42 36745.7 36726.9
6506.26 36835.4 36756
6509.1 36686.9 36712.9
6511.94 36616.4 36614.8
6514.77 36541.2 36559.9
6517.61 36522.2 36408.7
6520.45 36162.6 36344.1
6523.29 36347.3 36171.7
6526.12 36005.2 36106.6
6528.96 35967.3 35878.1
6531.8 35661.7 35592.5
6534.64 35148.5 35265.2
6537.47 34985.3 34848.1
6540.31 34410.4 34366.9
6543.14 33705.1 33670.6
6545.98 32896.5 32832.3
6548.82 31895.2 31887.6
6551.65 30871 30351.2
6554.49 28287.4 28271.3
6557.32 25655.3 25846.1
6560.16 23595.7 24610.4
6563 24580.2 24730.7
6565.83 26016.1 26222.9
6568.67 28072.4 27976.3
6571.5 29840.4 29598.1
6574.34 30881.4 31104.5
6577.17 32591.7 32232.5
6580 33224.4 33216.3
6582.84 33832.7 33887.7
6585.67 34606.1 34464.3
6588.51 34954.1 34806.1
6591.34 34858.1 34852.3
6594.17 34744.6 34948
6597.01 35241.3 35224.2
6599.84 35686.7 35563.1
6602.67 35761.3 35802.6
6605.51 35959.8 35739.6
6608.34 35497.7 35734.2
6611.17 35745.1 35725.1
6614.01 35932.3 35897.8
6616.84 36016 36102.3
6619.67 36358.5 36206.8
6622.5 36245.8 36325.9
6625.33 36373.4 36253.3
6628.17 36140.9 36008.6
6631 35511.7 35923.1
6633.83 36116.9 35985.5
6636.66 36328.1 36236.7
6639.49 36265.2 36208
6642.32 36030.7 36058.5
6645.15 35879.5 35943.9
6647.98 35921.6 35990.9
6650.81 36171.7 36148.4
6653.64 36351.8 36298
6656.48 36370.5 36411
6659.31 36510.7 36420.9
6662.14 36381.5 36280.9
6664.96 35950.6 36056.6
6667.79 35837.8 35879.7
6670.62 35850.7 35825.5
6673.45 35788 35822.9
6676.28 35829.8 35733
6679.11 35581.2 35820.5
6681.94 36050.5 35880.5
6684.77 36009.8 35998.5
6687.6 35935.3 35969.1
6690.43 35962.2 35961.7
6693.25 35987.7 35943.8
6696.08 35881.5 35996
6698.91 36118.8 35849.8
6701.74 35548.9 35739.9
6704.56 35552.1 35623.7
6707.39 35770.1 35800
6710.22 36077.9 35882.2
6713.05 35798.5 35812.3
6715.87 35560.4 35619.8
6718.7 35500.4 35594.2
6721.53 35721.7 35593.3
6724.35 35557.9 35635.8
6727.18 35627.7 35645
6730.01 35749.3 35734.3
6732.83 35825.9 35745.6
6735.66 35661.6 35574.7
6738.48 35236.5 35526.4
6741.31 35681 35456.6
6744.13 35452.3 35475.8
6746.96 35293.9 35472.6
6749.78 35671.7 35497.6
6752.61 35527.2 35542.7
6755.43 35429.4 35285.7
6758.26 34900.7 35233.4
6761.08 35370 35197
6763.91 35320.3 35296.6
6766.73 35199.6 35225.1
6769.55 35155.3 35151.5
6772.38 35099.6 35291.6
6775.2 35619.9 35363.2
6778.02 35370.1 35434.6
6780.85 35313.8 35304.6
6783.67 35229.9 35188.9
6786.49 35023 35042.9
6789.32 34875.9 34973.6
6792.14 35022.1 34917.2
6794.96 34853.8 34925.4
6797.78 34900.4 34916.6
6800.61 34995.6 35042.3
6803.43 35230.8 35005.8
6806.25 34791.1 34972.5
6809.07 34895.5 34825.4
6811.89 34789.5 34798.8
6814.71 34711.3 34768
6817.53 34803.1 34712
6820.36 34621.7 34787
6823.18 34936.3 34632.8
6826 34340.4 34578.1
6828.82 34457.4 34344.7
6831.64 34236.4 34271.8
6834.46 34121.5 34086.7
6837.28 33902.1 34019
6840.1 34033.4 33963.6
6842.92 33955.2 34096.5
6845.74 34300.9 34100.9
6848.56 34046.6 34185.6
6851.37 34209.3 34011.7
6854.19 33779.2 33911.5
6857.01 33746.1 33428.7
6859.83 32760.8 32475.7
6862.65 30920.2 30673.1
6865.47 28338.3 28725.8
6868.29 26919.1 27471
6871.1 27155.6 27415.9
6873.92 28172.9 28235.4
6876.74 29377.8 29231.9
6879.56 30145.1 29804
6882.37 29888.9 29994.8
6885.19 29950.3 29824.4
6888.01 29634 29716.5
6890.82 29565.3 29655.7
6893.64 29767.8 29821.1
6896.46 30130.2 30028.4
6899.27 30187.2 30319.8
6902.09 30641.9 30535.6
6904.9 30777.5 30734.1
6907.72 30782.8 30954
6910.54 31301.8 31099.9
6913.35 31215.1 31311.2
6916.17 31416.6 31546
6918.98 32006.2 31783.8
6921.8 31928.7 31957.4
6924.61 31937.5 31937.6
6927.43 31946.7 32009.2
6930.24 32143.5 32064.2
6933.05 32102.5 32201.1
6935.87 32357.2 32162.2
6938.68 32026.8 32042.6
6941.5 31743.9 31857.5
6944.31 31801.8 31841.3
6947.12 31978.3 31787.5
6949.94 31582.3 31803.1
6952.75 31848.8 31771.8
6955.56 31884.3 31950.8
6958.37 32119.3 31920.9
6961.19 31759.1 31995.7
6964 32108.6 31971.5
6966.81 32046.8 31946.5
6969.62 31684.1 31744
6972.43 31501.2 31618.5
6975.25 31670.3 31564.1
6978.06 31520.7 31512.4
6980.87 31346.2 31363.4
6983.68 31223.5 31238.2
6986.49 31144.9 31172.1
6989.3 31148.1 31162.1
6992.11 31193.3 31104.5
6994.92 30972 31085
6997.73 31089.6 30995.1
7000.54 30923.5 30960.5
7003.35 30868.4 30837.2
7006.16 30719.6 30723.5
7008.97 30582.6 30722.6
7011.78 30865.6 30601.1
7014.59 30355 30546.8
7017.4 30419.7 30380.1
7020.21 30365.4 30365
7023.02 30309.9 30340
7025.83 30344.6 30341.8
7028.63 30371 30386
7031.44 30442.3 30303.9
7034.25 30098.5 30231
7037.06 30152.1 30199.1
7039.87 30346.6 30285.4
7042.67 30357.4 30300.2
7045.48 30196.5 30227
7048.29 30126.9 30137.2
7051.09 30088.2 30051.2
7053.9 29938.5 29978.3
7056.71 29908.3 29944.7
7059.51 29987.3 29953
7062.32 29963.3 29872.1
7065.13 29665.6 29832.7
7067.93 29869.3 29837
7070.74 29976 29868.4
7073.54 29759.9 29802.1
7076.35 29670.4 29589.8
7079.15 29339.1 29639
7081.96 29907.5 29582.7
7084.76 29501.5 29589.9
7087.57 29360.5 29436.8
7090.37 29448.3 29420.6
7093.18 29453 29351.9
7095.98 29154.3 29286.7
7098.78 29252.8 29300.9
7101.59 29495.7 29256.9
7104.39 29022.2 29245.8
7107.19 29219.4 29024.6
7110 28832.2 28911.2
7112.8 28682 28760.6
7115.6 28767.5 28732.2
7118.41 28747.2 28691.1
7121.21 28558.8 28614.9
7124.01 28538.7 28549.3
7126.81 28550.5 28632.1
7129.61 28807.1 28659.4
7132.42 28620.5 28656.6
7135.22 28542.2 28568.6
7138.02 28543 28504
7140.82 28426.9 28429
7143.62 28317.1 28363.6
7146.42 28346.8 28215.2
7149.22 27981.7 28091.9
7152.02 27947.1 28005.9
7154.82 28088.9 27947.5
7157.62 27806.4 27799.6
7160.42 27503.5 27565.2
7163.22 27385.8 27282.5
7166.02 26958.3 27085
7168.82 26910.9 26014.9
7171.62 24175.4 25024.8
7174.42 23988.2 23983.5
7177.22 23787 23851.3
7180.02 23778.7 23696.1
7182.82 23522.5 23609.9
7185.61 23528.4 23456
7188.41 23317 23390.6
7191.21 23326.2 23350.5
7194.01 23408.2 23471.5
7196.81 23680.2 23493.3
7199.6 23391.6 23490.6
7202.4 23399.9 23522.2
7205.2 23775 23567.4
7207.99 23527.1 23780.3
7210.79 24038.8 23758.5
7213.59 23709.7 23859.7
7216.38 23830.6 23748.4
7219.18 23705.1 23672.6
7221.98 23482 23638.7
7224.77 23729.1 23458.9
7227.57 23165.5 23391.4
7230.36 23279.5 23142.1
7233.16 22981.1 23168.4
7235.95 23244.6 23155.1
7238.75 23239.5 23135.7
7241.54 22923 23068
7244.34 23041.4 23005.2
7247.13 23051.1 22972.2
7249.92 22824 22931.5
7252.72 22919.3 22907.6
7255.51 22979.5 22961.7
7258.3 22986.5 22935.5
7261.1 22840.5 22839.6
7263.89 22691.7 22761.5
7266.68 22752.4 22752.9
7269.48 22814.7 22687.6
7272.27 22495.7 22628.9
7275.06 22576.3 22604.3
7277.85 22740.9 22639.4
7280.65 22601 22567.7
7283.44 22361.3 22401.4
7286.23 22241.9 22309
7289.02 22323.9 22222.9
7291.81 22103 22335.9
7294.6 22580.7 22325
7297.39 22291.3 22493.8
7300.18 22609.6 22393.1
7302.97 22278.4 22416.4
7305.77 22361.2 22331.9
7308.56 22356.1 22389.5
7311.35 22451.3 22388.6
7314.13 22358.5 22468.4
7316.92 22595.3 22493.9
7319.71 22528 22546.8
7322.5 22517.2 22514
7325.29 22496.8 22466.9
7328.08 22386.9 22419.1
7330.87 22373.6 22361.8
7333.66 22325 22454.3
7336.45 22664.5 22547.7
7339.23 22653.6 22609.6
7342.02 22510.8 22580.4
7344.81 22576.9 22549
7347.6 22559.4 22406.2
7350.38 22082.2 22210.5
7353.17 21989.7 22104.4
7355.96 22241.2 22083.7
7358.74 22020.3 22097.4
7361.53 22030.6 22065.8
7364.32 22146.4 22116.1
7367.1 22171.2 22148.6
7369.89 22128.2 22098.1
7372.67 21994.8 22100.4
7375.46 22178.2 22053.8
7378.25 21988.4 21998.2
7381.03 21828 21735.3
7383.82 21389.5 21600
7386.6 21582.4 21517.9
7389.39 21581.8 21583.9
7392.17 21587.5 21557.3
7394.95 21502.5 21539.8
7397.74 21529.4 21486.5
7400.52 21427.8 21426.2
7403.31 21321.4 21345.7
7406.09 21287.9 21285.4
7408.87 21246.8 21267.8
7411.65 21268.5 21216.5
7414.44 21134.3 21157.1
7417.22 21068.4 21060.5
7420 20978.9 21106.5
7422.78 21272.4 21140.3
7425.57 21169.7 21202.2
7428.35 21164.6 21228.3
7431.13 21350.6 21187.7
7433.91 21047.8 21180.3
7436.69 21142.3 21074.4
7439.47 21033 21037.7
7442.26 20937.8 21002.2
7445.04 21035.8 20936.6
7447.82 20836.1 20953.4
7450.6 20988.2 20939.9
7453.38 20995.4 21015.1
7456.16 21061.7 20907.8
7458.94 20666.4 20830.1
7461.72 20762.2 20774.3
7464.5 20894.2 20847.5
7467.27 20885.9 20948.9
7470.05 21066.4 20975.9
7472.83 20975.2 21066.2
7475.61 21157 21000
7478.39 20867.7 20921.6
7481.17 20740.2 20772.1
7483.94 20708.3 20648
7486.72 20495.6 20579.6
7489.5 20534.8 20396.5
7492.28 20159.3 20325
7495.05 20280.9 20266.1
7497.83 20358.2 20372.1
7500.61 20477.2 20424.8
7503.38 20439 20391.5
7506.16 20258.3 20254.9
7508.94 20067.5 20164.1
7511.71 20166.4 20208
7514.49 20390.3 20265.2
7517.26 20239.1 20257.4
7520.04 20142.7 20157.9
7522.82 20092 20080.8
7525.59 20007.7 20103.8
7528.37 20211.7 20054
7531.14 19942.7 20053.1
7533.91 20004.9 19915.7
7536.69 19799.4 19979.1
7539.46 20133.1 19963.1
7542.24 19956.7 20023
7545.01 19979.2 19970.5
7547.78 19975.5 19973.3
7550.56 19965.2 19900.2
7553.33 19759.9 19900.7
7556.1 19977.1 19922
7558.87 20029.1 20007.8
7561.65 20017.3 19968.9
7564.42 19860.4 19857.6
7567.19 19695.1 19699
7569.96 19541.4 19542.6
7572.73 19391.3 19477.2
7575.51 19498.7 19448.4
7578.28 19455.2 19401.1
7581.05 19249.4 19170.8
7583.82 18807.7 18684
7586.59 17994.7 17610.9
7589.36 16030.3 15665.6
7592.13 12971.9 13043.2
7594.9 10127.4 10484.5
7597.67 8354.31 8442.8
7600.44 6846.65 7237.48
7603.21 6511.49 6771.37
7605.98 6955.96 7222.12
7608.75 8198.91 8444.42
7611.52 10178.4 10322.2
7614.28 12589.4 11885.6
7617.05 12889.2 12604.8
7619.82 12335.8 12194.2
7622.59 11357.7 11571.4
7625.36 11020.6 11030.4
7628.12 10712.8 10915.9
7630.89 11014.4 11058.7
7633.66 11449 11328.1
7636.42 11521 11710.8
7639.19 12162.3 12115.1
7641.96 12662.1 12684.8
7644.72 13230 13204.9
7647.49 13722.8 13662.6
7650.26 14034.9 14106.7
7653.02 14562.3 14490.7
7655.79 14875 14905.2
7658.55 15278.2 15180.5
7661.32 15388.3 15418
7664.08 15587.6 15685.6
7666.85 16080.9 16044.2
7669.61 16464.1 16438.9
7672.38 16771.7 16677.9
7675.14 16797.9 16834.1
7677.9 16932.8 16999
7680.67 17266.2 17249.3
7683.43 17548.7 17454
7686.19 17547.2 17523.4
7688.96 17474.2 17463.5
7691.72 17369 17447.1
7694.48 17498 17507.3
7697.25 17654.9 17570.2
7700.01 17557.7 17625.1
7702.77 17662.7 17569.9
7705.53 17489.4 17491.8
7708.29 17323.3 17322.4
7711.05 17154.5 17219.9
7713.82 17181.8 17240
7716.58 17383.6 17408.8
7719.34 17661.1 17488.2
7722.1 17420 17583.2
7724.86 17668.7 17524.7
7727.62 17485.4 17592.8
7730.38 17624.4 17539.9
7733.14 17509.7 17480.4
7735.9 17306.9 17340.7
7738.66 17205.4 17211.3
7741.42 17121.6 17162.2
7744.17 17159.5 17018.8
7746.93 16775.3 17062.1
7749.69 17251.5 16980.1
7752.45 16913.5 17016.4
7755.21 16884.3 16801.2
7757.97 16606 16701.5
7760.72 16614.4 16613.3
7763.48 16619.7 16616.4
7766.24 16615.2 16402.4
7768.99 15972.2 16085.5
7771.75 15669.1 15740.8
7774.51 15581.2 15658
7777.26 15723.6 15667.4
7780.02 15697.3 15794.2
7782.78 15961.6 15915.1
7785.53 16086.5 16002.8
7788.29 15960.3 16134.1
7791.04 16355.6 16186.4
7793.8 16243.4 16246.6
7796.55 16140.8 16282.2
7799.31 16462.6 16328.4
7802.06 16382 16353.6
7804.82 16216.2 16254.7
7807.57 16166 16226.5
7810.32 16297.4 16266.7
7813.08 16336.7 16313.5
7815.83 16306.3 16355.3
7818.58 16423 16242.3
7821.34 15997.7 16218.9
7824.09 16236.2 16052.4
7826.84 15923.4 16053.4
7829.59 16000.5 15956.8
7832.35 15946.5 15993.3
7835.1 16033 15969
7837.85 15927.6 15993.7
7840.6 16020.6 15992.2
7843.35 16028.5 16000.1
7846.1 15951.3 15931.5
7848.86 15814.7 15774.6
7851.61 15557.9 15641.6
7854.36 15552.2 15548.8
7857.11 15536.1 15483.3
7859.86 15361.5 15407.1
7862.61 15323.8 15380.1
7865.36 15454.9 15445.6
7868.11 15558.2 15546.2
7870.85 15625.6 15544.1
7873.6 15448.4 15459.9
7876.35 15305.6 15313.2
7879.1 15185.6 15216.4
7881.85 15158.1 15126.9
7884.6 15037.1 15244.4
7887.34 15538 15218.9
7890.09 15081.6 15198.9
7892.84 14977.1 14949.1
7895.59 14788.6 14938.1
7898.33 15048.5 14897.3
7901.08 14854.7 14950.4
7903.83 14948 14842.4
7906.57 14724.6 14823.4
7909.32 14797.6 14793.4
7912.07 14858.1 14815
7914.81 14789.4 14647.5
7917.56 14295 14518.9
7920.3 14472.2 14357.6
7923.05 14305.5 14287.7
7925.79 14085.4 14181.8
7928.54 14154.4 14015.4
7931.28 13806.4 13871.2
7934.02 13652.6 13752.8
7936.77 13799.3 13733.7
7939.51 13749.2 13803
7942.26 13860.6 13888
7945 14054.2 14024.6
7947.74 14159.2 14034.6
7950.49 13890.4 14101.6
7953.23 14255.1 14109
7955.97 14181.4 14076.9
7958.71 13794.1 14023.8
7961.45 14096 13949.9
7964.2 13959.4 13968.3
7966.94 13849.5 13960.3
7969.68 14072 14043.7
7972.42 14209.8 14086.8
7975.16 13978.8 14109.2
7977.9 14139.1 14039.9
7980.64 14001.9 13985.2
7983.38 13814.7 13919.6
7986.12 13942.2 13840.5
7988.86 13764.5 13818.4
7991.6 13748.5 13729.4
7994.34 13675.1 13717.1
7997.08 13727.8 13716.9
7999.82 13747.8 13673.6
8002.56 13545 13735.2
8005.3 13912.8 13749.7
8008.03 13791.2 13797.1
8010.77 13687.4 13730.7
8013.51 13713.4 13596.8
8016.25 13389.6 13617.5
8018.99 13749.6 13595.2
8021.72 13646.3 13649.5
8024.46 13552.7 13451.5
8027.2 13155.6 13395.8
8029.93 13479 13362.6
8032.67 13453.1 13026.1
8035.41 12146.3 12546.2
8038.14 12039.2 12061
8040.88 11997.5 12011.3
8043.61 11997.2 11964.2
8046.35 11897.9 11952.8
8049.08 11963.3 11901.1
8051.82 11842 11833.3
8054.55 11694.6 11737.3
8057.29 11675.2 11742.5
8060.02 11857.6 11779.9
8062.75 11806.8 11817.5
8065.49 11788 11774
8068.22 11727.3 11748.4
8070.95 11729.8 11634.1
8073.69 11445.2 11552.1
8076.42 11481.3 11471.4
8079.15 11487.6 11521.6
8081.88 11595.9 11444.4
8084.62 11249.7 11468.5
8087.35 11559.9 11397.4
8090.08 11382.7 11414.5
8092.81 11301 11320.1
8095.54 11276.6 11338.6
8098.27 11438.1 11326.5
8101 11264.7 11339.9
8103.73 11317 11260.9
8106.46 11200.9 11319.6
8109.19 11440.9 11257.2
8111.92 11129.9 11227.3
8114.65 11111.1 11059.8
8117.38 10938.5 11045.6
8120.11 11087.3 11014.8
8122.84 11018.7 11015.1
8125.57 10939.2 10991.2
8128.3 11015.9 10895.8
8131.03 10732.3 10852.3
8133.75 10808.7 10763.9
8136.48 10750.7 10871.3
8139.21 11054.6 10838.9
8141.94 10711.4 10718
8144.66 10388.2 10461.5
8147.39 10285.1 10393.9
8150.12 10508.5 10348.4
8152.84 10251.7 10366.8
8155.57 10340.2 10259.2
8158.3 10185.7 10222.9
8161.02 10142.9 10159.9
8163.75 10151 10114.1
8166.47 10048.5 10156.4
8169.2 10269.6 10172.1
8171.92 10198.2 10170.2
8174.65 10042.7 10081.4
8177.37 10003.4 9964.94
8180.09 9848.73 9927.26
8182.82 9929.67 9945.3
8185.54 10057.5 9965.92
8188.27 9910.57 9925.51
8190.99 9808.44 9768.53
8193.71 9586.59 9619.52
8196.43 9463.52 9537.2
8199.16 9561.48 9600.26
8201.88 9775.79 9771.17
8204.6 9976.25 9919.72
8207.32 10007.1 9991.23
8210.05 9990.31 9985.8
8212.77 9959.96 9942.1
8215.49 9876.02 9878.51
8218.21 9799.57 9781.51
8220.93 9668.94 9677.44
8223.65 9563.83 9524.14
8226.37 9339.66 9408.52
8229.09 9322.09 9494.93
8231.81 9823.04 9620.38
8234.53 9716 9801.11
8237.25 9864.29 9857.97
8239.97 9993.62 9915.52
8242.69 9888.65 10003.4
8245.41 10127.8 9990.73
8248.12 9955.72 9930.1
8250.84 9706.76 9830.5
8253.56 9829.03 9759.89
8256.28 9743.88 9803.61
8258.99 9837.92 9884.46
8261.71 10071.6 9937.64
8264.43 9903.43 10016.6
8267.15 10074.8 9963.72
8269.86 9912.94 9920.39
8272.58 9773.45 9823.3
8275.29 9783.5 9784.33
8278.01 9796.03 9776.52
8280.73 9750.01 9781.73
8283.44 9799.13 9712.23
8286.16 9587.54 9651.21
8288.87 9566.94 9649.33
8291.59 9793.52 9683.45
8294.3 9689.9 9773.08
8297.01 9835.81 9758.15
8299.73 9748.74 9728.77
8302.44 9601.74 9664.35
8305.16 9642.58 9710.36
8307.87 9886.77 9727.57
8310.58 9653.36 9782.61
8313.3 9807.7 9787.04
8316.01 9900.05 9788.02
8318.72 9656.3 9747.85
8321.43 9687.21 9644.11
8324.14 9588.81 9613.03
8326.86 9563.07 9576.21
8329.57 9576.76 9568.82
8332.28 9566.63 9546.49
8334.99 9496.08 9503.93
8337.7 9449.07 9466.74
8340.41 9455.07 9506.81
8343.12 9616.3 9512.29
8345.83 9465.5 9556
8348.54 9586.19 9572.52
8351.25 9665.87 9660.22
8353.96 9728.59 9670.35
8356.67 9616.6 9666.83
8359.38 9655.31 9647.45
8362.09 9670.43 9706.33
8364.79 9793.25 9689.29
8367.5 9604.18 9647.49
8370.21 9545.02 9587.54
8372.92 9613.4 9583.91
8375.62 9593.29 9599.61
8378.33 9592.13 9585.43
8381.04 9570.88 9617.23
8383.75 9688.67 9553.14
8386.45 9399.87 9509.37
8389.16 9439.56 9460.69
8391.86 9542.64 9483.22
8394.57 9467.45 9531.94
8397.28 9585.74 9477.43
8399.98 9379.12 9492.06
8402.69 9511.33 9517.23
8405.39 9661.24 9586.96
8408.1 9588.31 9617.24
8410.8 9602.16 9586.19
8413.5 9568.1 9619.63
8416.21 9688.62 9615.5
8418.91 9589.78 9681.08
8421.61 9764.83 9632.39
8424.32 9542.56 9621.03
8427.02 9555.7 9544.32
8429.72 9534.7 9511.06
8432.43 9442.77 9452.87
8435.13 9381.15 9442.26
8437.83 9502.88 9408.31
8440.53 9340.89 9375.39
8443.23 9282.42 9286.57
8445.93 9236.41 9262.74
8448.63 9269.39 9284.61
8451.34 9348.01 9358.2
8454.04 9457.2 9411.19
8456.74 9428.37 9477.48
8459.44 9546.88 9499.59
8462.14 9523.5 9422.4
8464.84 9196.81 9309.57
8467.53 9208.39 9215.03
8470.23 9239.9 9239.16
8472.93 9269.19 9294.74
8475.63 9375.12 9378.85
8478.33 9492.25 9473.37
8481.03 9552.75 9538.29
8483.73 9569.86 9552.77
8486.42 9535.68 9532.68
8489.12 9492.51 9443.01
8491.82 9300.84 9341.53
8494.51 9231.26 9140.11
8497.21 8888.24 8949.2
8499.91 8728.09 8831.48
8502.6 8878.1 8861.31
8505.3 8977.74 9026.88
8508 9224.79 9203.56
8510.69 9408.16 9344.29
8513.39 9399.93 9373.84
8516.08 9313.43 9369.6
8518.78 9395.45 9399.31
8521.47 9489.04 9461.19
8524.16 9499.06 9509.95
8526.86 9541.76 9563.6
8529.55 9649.97 9519.81
8532.25 9367.7 9461.24
8534.94 9366.04 9278.5
8537.63 9101.75 9031.16
8540.32 8625.7 8691.04
8543.02 8345.69 8497.6
8545.71 8521.43 8567.75
8548.4 8836.14 8816.07
8551.09 9090.63 9058.51
8553.78 9248.74 9158.07
8556.48 9134.84 9278.6
8559.17 9452.21 9369.41
8561.86 9521.19 9538.06
8564.55 9640.79 9623.1
8567.24 9707.32 9667.22
8569.93 9653.56 9624.87
8572.62 9513.74 9540.4
8575.31 9453.89 9484.03
8578 9484.47 9548.31
8580.69 9706.56 9538.09
8583.38 9423.23 9502.32
8586.06 9377.16 9380.58
8588.75 9341.34 9276.14
8591.44 9109.93 9163.36
8594.13 9038.8 8973.99
8596.82 8773.23 8839.3
8599.5 8705.87 8748.75
8602.19 8767.16 8807.85
8604.88 8950.52 8920.11
8607.56 9042.64 9067
8610.25 9207.83 9159.59
8612.94 9228.31 9299.29
8615.62 9461.73 9368.15
8618.31 9414.42 9476.49
8620.99 9553.33 9512.95
8623.68 9571.11 9564.87
8626.36 9570.17 9670.27
8629.05 9869.52 9681.33
8631.73 9604.31 9756.66
8634.42 9796.15 9704.48
8637.1 9712.99 9733.03
8639.78 9689.96 9642.38
8642.47 9524.19 9549.54
8645.15 9434.45 9498.37
8647.83 9536.47 9379.91
8650.52 9168.81 9323.45
8653.2 9265.06 9149.11
8655.88 9013.46 9101.86
8658.56 9027.05 8758.54
8661.25 8235.11 8409.86
8663.93 7967.41 7995.25
8666.61 7783.23 7932.94
8669.29 8048.18 8093.57
8671.97 8449.3 8364.96
8674.65 8597.41 8532.95
8677.33 8552.15 8621.85
8680.01 8715.99 8742.44
8682.69 8959.19 8943.35
8685.37 9154.86 9134.15
8688.05 9288.41 9235.55
8690.73 9263.38 9248.83
8693.41 9194.69 9288.76
8696.08 9408.21 9337.99
8698.76 9411.08 9430.12
8701.44 9471.06 9539.9
8704.12 9737.56 9622.21
8706.8 9658 9676.14
8709.47 9632.86 9571.31
8712.15 9423.06 9509.58
8714.83 9472.82 9443.08
8717.5 9433.37 9452.17
8720.18 9450.34 9511.44
8722.86 9650.61 9543.37
8725.53 9529.18 9588.38
8728.21 9585.35 9528.31
8730.88 9470.39 9450.84
8733.56 9296.77 9364.48
8736.23 9326.27 9215.18
8738.91 9022.51 9043.84
8741.58 8782.73 8828.74
8744.25 8680.98 8664.8
8746.93 8530.68 8432.57
8749.6 8086.04 8174.83
8752.27 7907.77 7971.6
8754.95 7920.98 8007.81
8757.62 8194.66 8189.01
8760.29 8451.39 8431.98
8762.97 8649.88 8642.49
8765.64 8826.19 8867.79
8768.31 9127.32 9059.22
8770.98 9224.15 9212.44
8773.65 9285.84 9181.6
8776.32 9034.82 9253.46
8778.99 9439.71 9301.01
8781.66 9428.5 9424.42
8784.33 9405.06 9548.79
8787 9812.8 9519.79
8789.67 9341.52 9457.36
8792.34 9217.77 9333.97
8795.01 9442.63 9350.83
8797.68 9392.11 9425.3
8800.35 9441.17 9470.56
8803.02 9578.4 9476.79
8805.69 9410.8 9435.31
8808.35 9316.72 9320.85
8811.02 9235.03 9347.94
8813.69 9492.06 9362.81
8816.36 9361.33 9335.6
8819.02 9153.42 9226.97
8821.69 9166.16 9184.57
8824.36 9234.13 8876.82
8827.02 8230.18 8542.7
8829.69 8163.78 8226.71
8832.35 8286.18 8202.29
8835.02 8156.9 8140.29
8837.68 7977.77 8007.81
8840.35 7888.75 7912.41
8843.01 7870.7 7918.74
8845.68 7996.77 7952.73
8848.34 7990.73 7954.05
8851.01 7874.64 7889.27
8853.67 7802.44 7708.26
8856.33 7447.71 7475.16
8859 7175.35 7086.93
8861.66 6637.72 6797.19
8864.32 6578.5 6549.66
8866.98 6432.77 6565.56
8869.64 6685.43 6742.55
8872.31 7109.46 7031.2
8874.97 7298.71 7374.02
8877.63 7713.91 7566.3
8880.29 7686.28 7732.88
8882.95 7798.44 7717.99
8885.61 7669.24 7773.77
8888.27 7853.64 7822.29
8890.93 7943.99 7919.45
8893.59 7960.73 8003.17
8896.25 8104.78 8094.59
8898.91 8218.25 8165.58
8901.57 8173.71 8128.55
8904.23 7993.7 8078.11
8906.89 8066.92 8030.56
8909.54 8031.07 8066.7
8912.2 8102.11 8091.52
8914.86 8141.39 8146.25
8917.52 8195.25 8155.76
8920.17 8130.63 8144.92
8922.83 8108.87 8067.2
8925.49 7962.09 7969.26
8928.14 7836.83 7898.61
8930.8 7896.9 7852.23
8933.46 7822.95 7914.55
8936.11 8023.79 7977.06
8938.77 8084.44 8032.32
8941.42 7988.72 8034.9
8944.08 8031.54 7948.64
8946.73 7825.66 7877.2
8949.39 7774.4 7778.04
8952.04 7734.07 7762.85
8954.69 7780.09 7787.52
8957.35 7848.41 7836.1
8960 7879.8 7830.8
8962.65 7764.19 7692.85
8965.31 7434.55 7576.85
8967.96 7531.82 7469.35
8970.61 7441.7 7458.62
8973.26 7402.36 7397.51
8975.91 7348.47 7396.75
8978.56 7439.4 7394.02
8981.22 7394.18 7418.09
8983.87 7420.68 7357.31
8986.52 7257.06 7257.89
8989.17 7095.93 7086.95
8991.82 6907.87 6924.99
8994.47 6771.17 6861.89
8997.12 6906.62 6869.5
8999.77 6930.72 6858.42
9002.42 6737.91 6725.58
9005.06 6508.12 6562.45
9007.71 6441.33 6444.85
9010.36 6385.09 6316.41
9013.01 6122.8 6074.11
9015.66 5714.43 5763.46
9018.3 5453.14 5541.17
9020.95 5455.94 5579.79
9023.6 5830.3 5772.23
9026.25 6030.44 6040.12
9028.89 6259.62 6261.73
9031.54 6495.13 6536.25
9034.18 6853.99 6755.87
9036.83 6918.48 6926.58
9039.47 7007.25 6968.58
9042.12 6980.01 7006.23
9044.76 7031.42 7017.34
9047.41 7040.58 7025.25
9050.05 7003.73 7109.79
9052.7 7285.07 7109.36
9055.34 7039.28 7137.81
9057.99 7089.07 7072.41
9060.63 7088.87 7019.22
9063.27 6879.73 6822.86
9065.91 6500 6657.92
9068.56 6594.04 6157
9071.2 5376.98 5339.92
9073.84 4048.74 3141.91
