wavelength spectrum_sum 3smoothed_sum spectrum_optimal 3smoothed_optimal
3506.18 62.4023 50.3858 60.8265 50.6433
3509.09 88.7552 87.4504 91.1032 81.576
3512 111.194 103.948 92.7984 97.022
3514.91 111.895 108.943 107.165 102.083
3517.82 103.742 105.168 106.287 98.4027
3520.73 99.8679 100.843 81.757 94.3357
3523.65 98.9181 101.76 94.9636 90.8281
3526.56 106.496 105.126 95.7638 90.2044
3529.47 109.965 111.586 79.8857 93.5597
3532.38 118.299 120.487 105.03 102.761
3535.29 133.197 131.338 123.367 116.042
3538.2 142.518 148.417 119.73 128.548
3541.11 169.536 151.6 142.547 126.948
3544.03 142.746 148.472 118.568 129.029
3546.94 133.134 132.143 125.971 119.585
3549.85 120.549 129.424 114.216 119.227
3552.76 134.588 135.252 117.495 123.766
3555.67 150.62 138.618 139.587 124.969
3558.58 130.646 132.691 117.825 119.864
3561.49 116.807 111.324 102.179 98.861
3564.41 86.5197 107.415 76.5795 94.7592
3567.32 118.917 110.155 105.519 96.6409
3570.23 125.029 113.6 107.824 95.8832
3573.14 96.8535 108.329 74.3063 89.3212
3576.05 103.105 106.684 85.8333 88.5299
3578.96 120.092 103.34 105.45 91.2601
3581.88 86.8216 111.033 82.497 98.5016
3584.79 126.185 120.68 107.558 105.424
3587.7 149.033 148.797 126.216 130.46
3590.61 171.175 160.603 157.604 143.824
3593.52 161.601 166.865 147.651 150.78
3596.43 167.82 163.602 147.084 142.845
3599.35 161.384 172.614 133.799 145.818
3602.26 188.637 162.343 156.571 135.333
3605.17 137.009 168.169 115.628 143.083
3608.08 178.861 156.467 157.052 135.002
3610.99 153.529 164.159 132.325 144.026
3613.91 160.087 157.96 142.7 133.134
3616.82 160.262 164.747 124.375 141.744
3619.73 173.893 188.015 158.158 159.535
3622.64 229.891 206.242 196.071 178.327
3625.55 214.943 205.752 180.753 178.115
3628.47 172.421 200.296 157.521 171.677
3631.38 213.523 200.197 176.758 178.724
3634.29 214.648 215.42 201.892 192.068
3637.2 218.09 217.368 197.554 190.632
3640.11 219.365 215.509 172.449 185.655
3643.03 209.073 214.818 186.963 181.508
3645.94 216.015 217.672 185.111 192.12
3648.85 227.927 232.035 204.285 203.941
3651.76 252.163 238.356 222.429 214.871
3654.67 234.978 251.684 217.9 232.003
3657.59 267.91 254.061 255.681 234.81
3660.5 259.295 263.973 230.849 245.603
3663.41 264.713 266.225 250.277 245.69
3666.32 274.667 270.181 255.943 248.515
3669.24 271.162 275.578 239.326 250.733
3672.15 280.907 275.283 256.931 247.826
3675.06 273.782 273.71 247.22 246.111
3677.97 266.443 252.813 234.182 228.634
3680.88 218.215 247.098 204.501 224.605
3683.8 256.637 250.059 235.132 228.734
3686.71 275.324 268.426 246.569 237.127
3689.62 273.317 278.578 229.679 245.788
3692.53 287.091 284.003 261.116 250.254
3695.45 291.601 287.319 259.966 254.184
3698.36 283.265 273.284 241.469 238.739
3701.27 244.986 266.463 214.783 232.39
3704.18 271.136 277.096 240.917 241.907
3707.1 315.165 303.308 270.022 262.215
3710.01 323.624 304.594 275.706 266.002
3712.92 274.994 284.775 252.278 246.238
3715.83 255.707 269.776 210.73 239.457
3718.75 278.628 269.586 255.364 236.25
3721.66 274.424 289.949 242.656 269.25
3724.57 316.794 278.818 309.732 255.63
3727.48 245.236 276.555 214.503 248.878
3730.4 267.635 256.229 222.4 223.066
3733.31 255.815 262.914 232.294 229.312
3736.22 265.292 262.399 233.241 236.662
3739.13 266.089 255.147 244.45 224.534
3742.04 234.059 238.909 195.91 211.696
3744.96 216.578 228.058 194.729 201.072
3747.87 233.536 247.544 212.576 224.806
3750.78 292.519 276.474 267.112 255.483
3753.69 303.366 307.262 286.763 278.249
3756.61 325.901 308.276 280.872 277.421
3759.52 295.563 326.996 264.627 291.091
3762.43 359.524 342.319 327.773 310.293
3765.35 371.872 382.939 338.478 347.094
3768.26 417.422 399.429 375.032 360.964
3771.17 408.994 415.839 369.38 378.171
3774.08 421.102 413.881 390.099 382.878
3777 411.548 423.257 389.154 404.527
3779.91 437.12 423.936 434.327 401.465
3782.82 423.139 424.228 380.914 395.562
3785.73 412.425 417.235 371.444 382.649
3788.65 416.141 411.996 395.588 383.156
3791.56 407.422 402.549 382.437 379.482
3794.47 384.085 395.386 360.42 367.181
3797.38 394.651 394.045 358.687 362.963
3800.3 403.399 402.416 369.782 367.451
3803.21 409.198 402.637 373.885 370.153
3806.12 395.314 411.947 366.793 375.23
3809.03 431.329 392.124 385.012 357.971
3811.95 349.729 372.346 322.107 341.959
3814.86 335.982 336.216 318.757 313.051
3817.77 322.937 311.77 298.289 292.975
3820.68 276.392 290.676 261.879 272.477
3823.6 272.698 271.495 257.264 259.247
3826.51 265.394 264.647 258.598 255.213
3829.42 255.85 260.556 249.777 251.789
3832.33 260.425 262.836 246.991 257.015
3835.25 272.233 276.815 274.276 256.302
3838.16 297.787 306.734 247.639 286.792
3841.07 350.182 353.364 338.459 318.867
3843.99 412.123 377.062 370.504 356.826
3846.9 368.882 400.837 361.516 375.517
3849.81 421.505 379.656 394.532 365.549
3852.72 348.581 380.651 340.598 357.923
3855.64 371.867 359.048 338.638 339.013
3858.55 356.695 373.934 337.803 349.371
3861.46 393.24 378.123 371.673 353.647
3864.37 384.432 384.495 351.464 357.887
3867.29 375.813 375.349 350.523 342.992
3870.2 365.803 375.544 326.99 343.907
3873.11 385.015 379.791 354.209 355.203
3876.02 388.554 388.071 384.409 367.531
3878.94 390.644 387.865 363.974 369.783
3881.85 384.397 406.453 360.965 375.791
3884.76 444.318 445.122 402.435 413.658
3887.67 506.649 486.122 477.575 454.51
3890.59 507.399 516.238 483.521 479.233
3893.5 534.666 514.09 476.604 474.192
3896.41 500.204 506.668 462.45 459.022
3899.33 485.133 495.732 438.014 448.973
3902.24 501.86 520.642 446.454 464.03
3905.15 574.935 553.611 507.622 498.944
3908.06 584.037 601.778 542.757 551.13
3910.98 646.362 617.958 603.011 568.821
3913.89 623.476 607.963 560.693 560.942
3916.8 554.051 576.049 519.12 528.323
3919.71 550.618 512.301 505.156 479.676
3922.63 432.234 459.189 414.751 425.621
3925.54 394.715 385.73 356.956 352.706
3928.45 330.239 336.702 286.412 302.044
3931.36 285.152 310.86 262.764 293.46
3934.28 317.187 320.338 331.204 315.161
3937.19 358.675 370.134 351.515 365.856
3940.1 434.54 410.136 414.85 403.786
3943.01 437.194 460.282 444.993 450.889
3945.93 509.111 495.627 492.825 491.699
3948.84 540.575 543.753 537.279 539.381
3951.75 581.573 558.679 588.04 556.21
3954.66 553.891 546.365 543.31 543.625
3957.58 503.631 503.11 499.526 498.985
3960.49 451.807 439.14 454.121 434.278
3963.4 361.982 386.886 349.189 384.266
3966.31 346.87 354.119 349.489 349.105
3969.23 353.504 396.627 348.638 393.89
3972.14 489.506 457.064 483.544 455.862
3975.05 528.182 526.981 535.406 525.185
3977.96 563.254 580.164 556.607 585.731
3980.88 649.058 636.136 665.182 638.841
3983.79 696.095 721.195 694.734 727.899
3986.7 818.433 784.16 823.782 785.196
3989.61 837.951 828.155 837.072 835.947
3992.53 828.081 826.547 846.988 827.838
3995.44 813.61 839.954 799.454 847.412
3998.35 878.17 862.429 895.794 863.906
4001.26 895.508 882.339 896.469 893.136
4004.18 873.338 904.037 887.146 908.988
4007.09 943.266 908.566 943.35 915.992
4010 909.093 941.534 917.481 950.732
4012.91 972.243 954.261 991.364 966.537
4015.83 981.445 975.559 990.766 987.046
4018.74 972.988 986.096 979.009 1000.8
4021.65 1003.85 971.121 1032.63 990.945
4024.56 936.52 956.323 961.2 981.508
4027.48 928.594 919.9 950.697 940.593
4030.39 894.586 925.202 909.882 945.94
4033.3 952.427 932.799 977.239 943.336
4036.21 951.383 948.951 942.885 963.145
4039.12 943.043 935.743 969.31 943.055
4042.04 912.804 914.896 916.972 926.435
4044.95 888.841 916.152 893.023 922.863
4047.86 946.812 934.953 958.595 945.127
4050.77 969.206 955.117 983.764 967.513
4053.69 949.332 968.444 960.18 974.373
4056.6 986.795 957.058 979.175 963.103
4059.51 935.047 946.611 949.953 953.088
4062.42 917.991 933.325 930.135 949.49
4065.33 946.938 951.241 968.382 962.698
4068.25 988.793 963.331 989.577 962.816
4071.16 954.262 967.81 930.488 965.404
4074.07 960.375 962.011 976.146 967.478
4076.98 971.396 1004.77 995.799 1020.79
4079.89 1082.54 1064.68 1090.42 1079.05
4082.81 1140.11 1118.44 1150.92 1133.6
4085.72 1132.68 1158.77 1159.45 1171.64
4088.63 1203.53 1169.99 1204.54 1184.84
4091.54 1173.77 1126.64 1190.54 1131.13
4094.45 1002.63 1073.1 998.321 1069.95
4097.37 1042.9 1024.32 1021 1030.5
4100.28 1027.42 1054.59 1072.17 1059.21
4103.19 1093.44 1087.99 1084.46 1097.05
4106.1 1143.11 1119.51 1134.51 1113.87
4109.01 1121.97 1147.47 1122.65 1136.08
4111.93 1177.34 1164.22 1151.08 1168.47
4114.84 1193.34 1206 1231.67 1205.43
4117.75 1247.31 1227.34 1233.55 1240.83
4120.66 1241.38 1258.07 1257.28 1256.7
4123.57 1285.51 1257.38 1279.26 1257.65
4126.49 1245.25 1226.95 1236.41 1223.87
4129.4 1150.08 1189.21 1155.93 1189.65
4132.31 1172.31 1196.9 1176.63 1196.32
4135.22 1268.32 1256.86 1256.4 1251.28
4138.13 1329.97 1265.2 1320.8 1263.52
4141.04 1197.32 1238.53 1213.37 1245.44
4143.96 1188.31 1221.41 1202.14 1232.89
4146.87 1278.59 1246.66 1283.15 1263.3
4149.78 1273.09 1264.76 1304.62 1284.57
4152.69 1242.61 1263.93 1265.95 1285.01
4155.6 1276.09 1276.82 1284.46 1296.85
4158.51 1311.75 1302.99 1340.14 1323.39
4161.43 1321.12 1323.88 1345.57 1346.72
4164.34 1338.78 1321.21 1354.46 1345.26
4167.25 1303.74 1303.31 1335.75 1327.94
4170.16 1267.4 1260.01 1293.61 1284.36
4173.07 1208.89 1259.78 1223.72 1287.27
4175.98 1303.04 1269.26 1344.47 1295.29
4178.89 1295.85 1274.66 1317.68 1299.99
4181.81 1225.08 1274.63 1237.81 1298.4
4184.72 1302.96 1270.27 1339.7 1301.55
4187.63 1282.78 1305.35 1327.13 1337.81
4190.54 1330.3 1292.04 1346.6 1313.99
4193.45 1263.05 1278.11 1268.23 1296.18
4196.36 1240.98 1265.87 1273.71 1282.44
4199.27 1293.57 1269.14 1305.39 1287.76
4202.19 1272.88 1299.95 1284.17 1317.35
4205.1 1333.4 1338.36 1362.49 1363.01
4208.01 1408.78 1377.92 1442.37 1415.73
4210.92 1391.57 1401.95 1442.34 1446.52
4213.83 1405.49 1382.33 1454.84 1422.05
4216.74 1349.92 1363.35 1368.98 1403.35
4219.65 1334.63 1310.16 1386.22 1345.92
4222.56 1245.92 1272.33 1282.55 1314.49
4225.47 1236.44 1274.35 1274.71 1323.92
4228.39 1340.68 1309.94 1414.49 1364.56
4231.3 1352.7 1334.45 1404.48 1397.7
4234.21 1309.96 1349.65 1374.12 1403.06
4237.12 1386.3 1370.87 1430.58 1412.42
4240.03 1416.34 1398.99 1432.56 1433.61
4242.94 1394.33 1411.82 1437.7 1441.79
4245.85 1424.79 1392.95 1455.12 1438.02
4248.76 1359.73 1383.7 1421.23 1427.54
4251.67 1366.58 1391.28 1406.26 1435.96
4254.58 1447.52 1410.34 1480.4 1447.09
4257.49 1416.92 1418.19 1454.6 1462.18
4260.41 1390.13 1422.64 1451.53 1471.51
4263.32 1460.88 1407.85 1508.39 1459.26
4266.23 1372.53 1392.28 1417.85 1433.17
4269.14 1343.41 1367.41 1373.27 1407.32
4272.05 1386.28 1365.89 1430.85 1402.56
4274.96 1367.98 1406.96 1403.55 1441.72
4277.87 1466.63 1410.92 1490.75 1447.82
4280.78 1398.15 1433.11 1449.17 1471.61
4283.69 1434.54 1407.26 1474.89 1447.82
4286.6 1389.1 1393.77 1419.39 1427.77
4289.51 1357.68 1354.35 1389.04 1386.72
4292.42 1316.26 1311.47 1351.73 1346.4
4295.33 1260.46 1237.36 1298.44 1273.25
4298.24 1135.34 1195.21 1169.58 1227.46
4301.15 1189.82 1138.22 1214.36 1161.05
4304.06 1089.5 1125.81 1099.22 1152.68
4306.97 1098.1 1139.2 1144.46 1159.98
4309.88 1230.01 1247.06 1236.26 1283.4
4312.79 1413.07 1385.6 1469.46 1415.25
4315.7 1513.71 1488.26 1540.02 1533.78
4318.61 1538.01 1500.32 1591.85 1543.19
4321.53 1449.24 1475.58 1497.71 1526.9
4324.44 1439.48 1514.01 1491.15 1551.71
4327.35 1653.31 1587.7 1666.27 1628
4330.26 1670.31 1648.92 1726.58 1685.14
4333.17 1623.14 1625.35 1662.59 1660.1
4336.08 1582.6 1603.48 1591.14 1624.6
4338.99 1604.71 1610.65 1620.08 1631.64
4341.9 1644.65 1668.28 1683.7 1702.71
4344.81 1755.48 1691.42 1804.36 1743.04
4347.72 1674.13 1722.7 1741.05 1773.98
4350.62 1738.49 1732.25 1776.53 1780.35
4353.53 1784.12 1740.56 1823.46 1783.86
4356.44 1699.06 1749.09 1751.58 1790.63
4359.35 1764.09 1782.86 1796.84 1829.97
4362.26 1885.42 1823.25 1941.48 1880.01
4365.17 1820.23 1839.45 1901.71 1904.78
4368.08 1812.68 1840.99 1871.14 1898.13
4370.99 1890.05 1830.07 1921.54 1875.29
4373.9 1787.49 1810.91 1833.18 1849.06
4376.81 1755.18 1750.59 1792.47 1789.87
4379.72 1709.09 1687.07 1743.97 1731.11
4382.63 1596.94 1673.81 1656.9 1726.52
4385.54 1715.41 1661.87 1778.7 1711.82
4388.45 1673.27 1709.47 1699.86 1759.28
4391.36 1739.72 1739.82 1799.29 1787.87
4394.27 1806.46 1771.61 1864.47 1830.24
4397.18 1768.66 1783.09 1826.98 1839
4400.09 1774.14 1768.02 1825.55 1821.31
4403 1761.25 1783.8 1811.39 1843.64
4405.91 1816.02 1822.53 1893.98 1876.92
4408.81 1890.32 1850.15 1925.37 1902.89
4411.72 1844.11 1892.25 1889.33 1941.82
4414.63 1942.31 1910.06 2010.76 1980.66
4417.54 1943.76 1962.28 2041.88 2036.49
4420.45 2000.78 1991.6 2056.82 2070.77
4423.36 2030.25 2016.34 2113.62 2090.16
4426.27 2017.99 1997.43 2100.04 2073.84
4429.18 1944.05 1994.26 2007.87 2077.19
4432.09 2020.72 2015.44 2123.66 2102.02
4435 2081.56 2040.55 2174.54 2137.24
4437.9 2019.38 2054.68 2113.53 2140.12
4440.81 2063.11 2047.9 2132.3 2137.88
4443.72 2061.2 2071.58 2167.8 2174.69
4446.63 2090.42 2084.29 2223.97 2203.57
4449.54 2101.25 2070.98 2218.92 2180.29
4452.45 2021.27 2025.61 2097.99 2120.14
4455.36 1954.32 1989.22 2043.51 2069.43
4458.26 1992.08 2009.6 2066.78 2090.95
4461.17 2082.4 2054.73 2162.55 2131.98
4464.08 2089.73 2091.85 2166.6 2170.4
4466.99 2103.43 2112.33 2182.04 2202.38
4469.9 2143.84 2151.16 2258.48 2239.01
4472.81 2206.21 2220.23 2276.51 2313.37
4475.71 2310.65 2236.11 2405.13 2321.18
4478.62 2191.48 2236.35 2281.9 2338.21
4481.53 2206.93 2218.86 2327.59 2323.41
4484.44 2258.16 2214.4 2360.73 2336.53
4487.35 2178.09 2229.17 2321.27 2341.21
4490.26 2251.25 2269.43 2341.63 2374.57
4493.16 2378.94 2307.38 2460.83 2404.33
4496.07 2291.94 2310.44 2410.52 2424.34
4498.98 2260.44 2344.33 2401.67 2465.74
4501.89 2480.6 2413.42 2585.04 2544.93
4504.79 2499.22 2517.25 2648.1 2641.12
4507.7 2571.93 2508.26 2690.24 2643.97
4510.61 2453.63 2485.51 2593.59 2610.74
4513.52 2430.96 2426.54 2548.38 2547.85
4516.43 2395.03 2448.49 2501.59 2555.66
4519.33 2519.47 2429.75 2617.02 2532.83
4522.24 2374.75 2372.88 2479.89 2468.19
4525.15 2224.44 2267.61 2307.66 2359.46
4528.06 2203.65 2232.85 2290.85 2324.57
4530.96 2270.47 2271.26 2375.22 2373.19
4533.87 2339.67 2313.16 2453.5 2427.01
4536.78 2329.36 2334.32 2452.3 2439.62
4539.69 2333.94 2337.77 2413.05 2454.39
4542.59 2350.03 2338.73 2497.83 2454.33
4545.5 2332.21 2377.38 2452.12 2490.03
4548.41 2449.9 2404.68 2520.14 2502.24
4551.31 2431.93 2443.73 2534.46 2542.96
4554.22 2449.35 2443.18 2574.29 2570.44
4557.13 2448.24 2488.17 2602.56 2622.3
4560.04 2566.93 2554.21 2690.04 2687.31
4562.94 2647.45 2591.56 2769.34 2728.45
4565.85 2560.31 2569.75 2725.97 2730.1
4568.76 2501.48 2551.13 2695.01 2713.5
4571.66 2591.62 2618.72 2719.53 2769.24
4574.57 2763.06 2650.78 2893.18 2783.77
4577.48 2597.66 2594.13 2738.61 2731.57
4580.38 2421.66 2489.74 2562.92 2620.88
4583.29 2449.89 2509.94 2561.11 2631.28
4586.2 2658.27 2573.67 2769.81 2688.76
4589.1 2612.85 2583.68 2735.35 2705.38
4592.01 2479.93 2575.03 2610.96 2704.28
4594.92 2632.31 2569.59 2766.51 2696
4597.82 2596.52 2641.99 2710.52 2770.12
4600.73 2697.13 2646.56 2833.31 2768.55
4603.63 2646.04 2692.37 2761.82 2829.59
4606.54 2733.95 2713.53 2893.63 2851.81
4609.45 2760.61 2765.3 2899.99 2917.06
4612.35 2801.35 2755.8 2957.57 2919.56
4615.26 2705.44 2728.93 2901.13 2899.38
4618.17 2679.99 2717.91 2839.44 2886.18
4621.07 2768.3 2762.8 2917.96 2912.49
4623.98 2840.12 2824.81 2980.07 2975.94
4626.88 2866 2838.63 3029.78 2978.86
4629.79 2809.77 2783.24 2926.74 2937.98
4632.69 2673.96 2757.87 2857.42 2905.59
4635.6 2789.89 2743.46 2932.63 2900.78
4638.51 2766.52 2752.46 2912.29 2907.18
4641.41 2700.98 2729.52 2876.61 2896.22
4644.32 2721.07 2689.69 2899.77 2854.14
4647.22 2647.02 2688.11 2786.03 2857.45
4650.13 2696.24 2689.17 2886.54 2856.41
4653.03 2724.26 2741.93 2896.67 2921
4655.94 2805.29 2772.63 2979.78 2941.04
4658.84 2788.33 2777.44 2946.68 2952.19
4661.75 2738.71 2711.07 2930.12 2895.69
4664.65 2606.16 2708.73 2810.29 2892.44
4667.56 2781.32 2694.86 2936.92 2864.68
4670.47 2697.11 2729 2846.84 2884.35
4673.37 2708.56 2729.51 2869.3 2894
4676.28 2782.84 2760.75 2965.88 2924.06
4679.18 2790.84 2795.45 2937 2971.49
4682.08 2812.66 2782.37 3011.61 2949.74
4684.99 2743.62 2764.22 2900.61 2933.72
4687.89 2736.36 2772.91 2888.93 2944.39
4690.8 2838.75 2788.14 3043.61 2975.06
4693.7 2789.3 2845.83 2992.64 3030.61
4696.61 2909.46 2807.31 3055.58 2977.58
4699.51 2723.18 2790.66 2884.51 2961.89
4702.42 2739.35 2712.46 2945.58 2908.12
4705.32 2674.85 2722.65 2894.25 2930.45
4708.23 2753.75 2775.96 2951.51 2980.58
4711.13 2899.28 2867.95 3095.99 3077.35
4714.04 2950.82 2929.38 3184.54 3134.15
4716.94 2938.03 2955.17 3121.93 3166.51
4719.84 2976.67 2974.67 3193.05 3185.84
4722.75 3009.31 2992.56 3242.54 3202.81
4725.65 2991.68 2936.61 3172.84 3132.61
4728.56 2808.83 2889.07 2982.45 3063.3
4731.46 2866.69 2820.39 3034.6 3007.79
4734.36 2785.66 2863.02 3006.33 3055.51
4737.27 2936.7 2907.73 3125.59 3107.12
4740.17 3000.84 2962.16 3189.46 3162.26
4743.07 2948.93 3021.46 3171.73 3237.52
4745.98 3114.61 3043.7 3351.37 3264.76
4748.88 3067.55 3047.89 3271.19 3262.87
4751.79 2961.52 3008.42 3166.05 3219.86
4754.69 2996.19 2979.14 3222.35 3190.79
4757.59 2979.7 2987.14 3183.97 3194.48
4760.5 2985.53 2967.86 3177.11 3175.29
4763.4 2938.36 2954.02 3164.79 3157.99
4766.3 2938.16 2977.26 3132.06 3188.12
4769.21 3055.26 3016.15 3267.5 3217.85
4772.11 3055.04 3071.37 3254 3298.2
4775.01 3103.83 3098.38 3373.1 3316.86
4777.92 3136.27 3082.45 3323.49 3310.94
4780.82 3007.24 3088.37 3236.21 3308.97
4783.72 3121.6 3067.66 3367.21 3307.45
4786.62 3074.14 3080.52 3318.91 3323.23
4789.53 3045.83 3061.37 3283.58 3296.79
4792.43 3064.14 3072.02 3287.88 3301.76
4795.33 3106.08 3081.85 3333.82 3319.81
4798.23 3075.34 3084.24 3337.71 3330.71
4801.14 3071.31 3063.72 3320.6 3312.8
4804.04 3044.5 3099.88 3280.08 3344.29
4806.94 3183.83 3119.87 3432.19 3356.38
4809.84 3131.27 3163.95 3356.87 3400.53
4812.75 3176.76 3151.46 3412.53 3387.03
4815.65 3146.37 3164.73 3391.69 3412
4818.55 3171.07 3158.36 3431.78 3421.59
4821.45 3157.63 3170.59 3441.29 3429.47
4824.36 3183.07 3132.79 3415.33 3387.31
4827.26 3057.67 3118.08 3305.31 3366.3
4830.16 3113.52 3103.84 3378.28 3360.16
4833.06 3140.33 3137.84 3396.9 3398.17
4835.96 3159.68 3128.24 3419.33 3389.07
4838.86 3084.72 3090.07 3350.96 3364.63
4841.77 3025.82 3067.27 3323.6 3332.08
4844.67 3091.26 3070.85 3321.69 3333.07
4847.57 3095.45 3076.64 3353.92 3322.11
4850.47 3043.2 2991.12 3290.72 3257.02
4853.37 2834.71 2894.04 3126.44 3144.62
4856.27 2804.22 2739.77 3016.69 2978.7
4859.17 2580.39 2706.57 2792.97 2916.11
4862.08 2735.1 2684.09 2938.65 2916.34
4864.98 2736.78 2697.37 3017.4 2940.09
4867.88 2620.24 2727.6 2864.22 2996.39
4870.78 2825.8 2767.4 3107.55 3034.48
4873.68 2856.17 2875.66 3131.68 3134.81
4876.58 2945 2919.57 3165.21 3162.02
4879.48 2957.55 2942.87 3189.18 3185.52
4882.38 2926.06 2945.5 3202.17 3192.66
4885.28 2952.9 2931.21 3186.64 3185.37
4888.18 2914.66 2935.96 3167.31 3183.91
4891.08 2940.31 3008.58 3197.79 3269.16
4893.99 3170.76 3078.32 3442.38 3361.7
4896.89 3123.89 3202.3 3444.93 3489.52
4899.79 3312.24 3191.29 3581.24 3486.59
4902.69 3137.75 3190.23 3433.6 3466.03
4905.59 3120.71 3129.14 3383.25 3409.34
4908.49 3128.98 3134.22 3411.18 3409.37
4911.39 3152.99 3157.76 3433.68 3433.81
4914.29 3191.31 3122.26 3456.59 3386.28
4917.19 3022.47 3044.66 3268.58 3304.72
4920.09 2920.2 2998.8 3188.98 3265.42
4922.99 3053.72 3038.61 3338.7 3322.11
4925.89 3141.9 3163.36 3438.67 3457.68
4928.79 3294.44 3241.37 3595.67 3536.29
4931.69 3287.78 3250.53 3574.54 3552.37
4934.58 3169.39 3187.48 3486.91 3484.76
4937.48 3105.27 3183.12 3392.84 3490.18
4940.38 3274.69 3228.02 3590.8 3560.14
4943.28 3304.11 3332.15 3696.78 3674.24
4946.18 3417.66 3347.82 3735.15 3691.8
4949.08 3321.69 3305.86 3643.47 3637.3
4951.98 3178.23 3234.34 3533.27 3554.75
4954.88 3203.11 3215.63 3487.51 3543.33
4957.78 3265.56 3222.79 3609.2 3561.78
4960.68 3199.69 3261.76 3588.63 3632.12
4963.58 3320.04 3293.1 3698.53 3661.06
4966.48 3359.57 3355.33 3696.04 3705.44
4969.37 3386.39 3343.62 3721.75 3686.74
4972.27 3284.89 3399.38 3642.42 3744.2
4975.17 3526.87 3379.88 3868.43 3727.93
4978.07 3327.88 3341.45 3672.94 3675.64
4980.97 3169.6 3226.83 3485.56 3548.62
4983.87 3183 3227.55 3487.36 3537.11
4986.76 3330.04 3284.95 3638.39 3607.32
4989.66 3341.81 3370.7 3696.2 3713.44
4992.56 3440.25 3380.53 3805.72 3743.35
4995.46 3359.53 3377.94 3728.13 3763.27
4998.36 3334.04 3336.65 3755.96 3722.55
5001.25 3316.38 3265.34 3683.56 3635.46
5004.15 3145.59 3240.93 3466.87 3587.78
5007.05 3260.82 3190.77 3612.9 3547.25
5009.95 3165.89 3205.16 3561.97 3558
5012.85 3188.75 3199.61 3499.14 3553.51
5015.74 3244.18 3221.82 3599.43 3564.65
5018.64 3232.54 3258.35 3595.37 3629.68
5021.54 3298.32 3263.1 3694.25 3627.81
5024.44 3258.43 3315.55 3593.8 3686.75
5027.33 3389.91 3371.58 3772.18 3747.89
5030.23 3466.4 3385.32 3877.67 3790.33
5033.13 3299.66 3353.2 3721.13 3764.17
5036.02 3293.55 3263.87 3693.71 3667.34
5038.92 3198.39 3266.2 3587.2 3661.82
5041.82 3306.66 3287.69 3704.56 3662.32
5044.71 3358.02 3355.32 3695.2 3711.88
5047.61 3401.28 3410.25 3735.89 3768.66
5050.51 3471.44 3462.12 3874.89 3841.41
5053.4 3513.64 3503.86 3913.46 3899.35
5056.3 3526.5 3565.75 3909.7 3968.96
5059.2 3657.11 3597.14 4083.71 4009.27
5062.09 3607.8 3572.94 4034.41 3986.37
5064.99 3453.92 3573.91 3841 3984.16
5067.89 3660.01 3534.79 4077.08 3962.82
5070.78 3490.43 3561.38 3970.39 3999.4
5073.68 3533.7 3489.12 3950.74 3918.46
5076.57 3443.23 3488.91 3834.24 3895.56
5079.47 3489.79 3428.92 3901.72 3827.44
5082.37 3353.75 3420.52 3746.38 3828.01
5085.26 3418.01 3425.82 3835.93 3853.64
5088.16 3505.7 3487.04 3978.62 3931.25
5091.05 3537.4 3531.42 3979.19 3974.46
5093.95 3551.16 3523.08 3965.56 3940.04
5096.84 3480.69 3530.29 3875.38 3950.64
5099.74 3559.02 3518.84 4010.99 3947.64
5102.63 3516.82 3574.04 3956.56 4018.54
5105.53 3646.28 3571.75 4088.07 4016.4
5108.42 3552.14 3589.71 4004.58 4032.34
5111.32 3570.72 3615.52 4004.38 4063.63
5114.21 3723.7 3613.85 4181.94 4042.52
5117.11 3547.15 3637.89 3941.25 4066.27
5120 3642.84 3568.4 4075.61 3992.59
5122.9 3515.23 3546.55 3960.91 3969.81
5125.79 3481.6 3490.41 3872.9 3931.71
5128.69 3474.4 3470.93 3961.31 3910.6
5131.58 3456.8 3514.01 3897.57 3971.07
5134.48 3610.82 3513.45 4054.32 3947.22
5137.37 3472.74 3505.71 3889.78 3932.39
5140.26 3433.57 3418.09 3853.07 3836.06
5143.16 3347.95 3452.62 3765.34 3898.41
5146.05 3576.33 3476.04 4076.81 3957.47
5148.95 3503.84 3552.48 4030.25 4043.19
5151.84 3577.27 3567.34 4022.52 4038.45
5154.73 3620.92 3607.99 4062.57 4061.44
5157.63 3625.77 3607.82 4099.24 4068.91
5160.52 3576.77 3506.86 4044.92 3953.5
5163.42 3318.04 3313.02 3716.33 3723.07
5166.31 3044.25 3117.13 3407.95 3492.35
5169.2 2989.09 3014.67 3352.77 3384.47
5172.1 3010.66 3083.96 3392.7 3474.75
5174.99 3252.13 3155.2 3678.79 3589.93
5177.88 3202.79 3176.74 3698.3 3603.2
5180.78 3075.31 3118.08 3432.51 3535.21
5183.67 3076.15 3129.06 3474.83 3529.54
5186.56 3235.71 3204.07 3681.27 3628.3
5189.45 3300.34 3313.34 3728.81 3757.36
5192.35 3403.97 3404.01 3862.01 3861.06
5195.24 3507.74 3439.8 3992.36 3933.64
5198.13 3407.71 3511.98 3946.57 4019.78
5201.02 3620.49 3501.54 4120.41 4008.9
5203.92 3476.42 3498.67 3959.71 3984.45
5206.81 3399.09 3487.33 3873.22 3980.35
5209.7 3586.47 3511.38 4108.11 4021.12
5212.59 3548.59 3534.52 4082.01 4055.59
5215.49 3468.49 3555.89 3976.64 4077
5218.38 3650.59 3599.79 4172.36 4117.11
5221.27 3680.3 3617.12 4202.32 4128.11
5224.16 3520.46 3564.96 4009.66 4075.61
5227.05 3494.14 3500.2 4014.86 4006.43
5229.94 3485.99 3527.61 3994.77 4040.79
5232.84 3602.71 3603.04 4112.75 4120.65
5235.73 3720.42 3655.46 4254.43 4202.48
5238.62 3643.25 3735.76 4240.26 4287.2
5241.51 3843.61 3738.75 4366.91 4290.24
5244.4 3729.39 3776.65 4263.56 4324.18
5247.29 3756.94 3762.68 4342.06 4316.67
5250.18 3801.7 3767.45 4344.37 4325.87
5253.07 3743.69 3779.07 4291.17 4342.37
5255.96 3791.8 3796.95 4391.55 4362.51
5258.86 3855.35 3738.32 4404.8 4314.58
5261.75 3567.8 3608.44 4147.4 4138.02
5264.64 3402.16 3408.21 3861.87 3903.86
5267.53 3254.69 3334.1 3702.3 3801.8
5270.42 3345.46 3332.64 3841.22 3840.84
5273.31 3397.77 3414.61 3979 3958.16
5276.2 3500.61 3508.13 4054.26 4090.05
5279.09 3626.01 3603.29 4236.89 4154.77
5281.98 3683.25 3674.7 4173.14 4239.63
5284.87 3714.85 3730.56 4308.85 4290.74
5287.76 3793.57 3802.7 4390.22 4394.92
5290.65 3899.68 3853.76 4485.68 4449.87
5293.54 3868.02 3838.64 4473.71 4441.94
5296.43 3748.21 3793.95 4366.42 4419.49
5299.32 3765.62 3816.76 4418.35 4441.24
5302.21 3936.45 3871.54 4538.94 4495.1
5305.09 3912.56 3957.21 4528 4571.37
5307.98 4022.63 4020.82 4647.17 4644.76
5310.87 4127.28 4044.75 4759.11 4667.71
5313.76 3984.34 4052.16 4596.86 4668.77
5316.65 4044.86 3939.93 4650.34 4545.11
5319.54 3790.58 3893.54 4388.12 4480.59
5322.43 3845.18 3790.8 4403.31 4364.22
5325.32 3736.62 3731.12 4301.24 4284.84
5328.21 3611.55 3739.42 4149.97 4284.7
5331.09 3870.08 3794.47 4402.9 4345.61
5333.98 3901.79 3848.35 4483.97 4409.19
5336.87 3773.18 3848.99 4340.7 4417.54
5339.76 3872.01 3819.82 4427.94 4394.62
5342.65 3814.27 3852.91 4415.23 4459.61
5345.53 3872.45 3886.99 4535.66 4519.39
5348.42 3974.25 3949.19 4607.28 4587.24
5351.31 4000.87 4017.43 4618.78 4660.41
5354.2 4077.17 4043.21 4755.16 4690.63
5357.09 4051.6 4053.68 4697.96 4689.12
5359.97 4032.27 4006.27 4614.25 4627.02
5362.86 3934.93 3927.86 4568.85 4551.92
5365.75 3816.38 3872.85 4472.66 4515.88
5368.64 3867.23 3875.71 4506.13 4511.3
5371.52 3943.5 3908.95 4555.11 4544.54
5374.41 3916.12 3943.81 4572.37 4571.24
5377.3 3971.81 3982.25 4586.22 4600.04
5380.18 4058.84 3998.04 4641.53 4584.34
5383.07 3963.47 4042.1 4525.26 4655.41
5385.96 4103.99 3995.83 4799.43 4635.78
5388.84 3920.03 3970.96 4582.65 4619.25
5391.73 3888.86 3870.13 4475.67 4516.95
5394.62 3801.48 3834.1 4492.53 4441.44
5397.5 3811.95 3818.97 4356.11 4411.99
5400.39 3843.49 3777.95 4387.33 4328.54
5403.28 3678.41 3743.79 4242.17 4312.98
5406.16 3709.48 3710.81 4309.43 4313.41
5409.05 3744.53 3769.34 4388.62 4369.58
5411.93 3854.01 3828.54 4410.7 4450.34
5414.82 3887.09 3898.61 4551.7 4502.58
5417.7 3954.72 3917.06 4545.35 4534.69
5420.59 3909.37 3926.99 4507.03 4528.25
5423.48 3916.88 3942.55 4532.38 4551.19
5426.36 4001.4 3896.32 4614.17 4509.99
5429.25 3770.66 3878.59 4383.43 4498.89
5432.13 3863.71 3863.12 4499.07 4505.59
5435.02 3955 3966.94 4634.28 4647.04
5437.9 4082.1 4025.93 4807.77 4707.28
5440.79 4040.69 4033.17 4679.78 4685.42
5443.67 3976.73 3990.75 4568.7 4604.32
5446.56 3954.81 3844.14 4564.49 4571.57
5449.44 3600.87 3753.81 4581.52 4613.57
5452.32 3705.75 3641.95 4694.69 4653.36
5455.21 3619.25 3719.6 4683.87 4749.92
5458.09 3833.82 3769.12 4871.2 4816.6
5460.98 3854.29 3831.64 4894.72 4891.53
5463.86 3806.81 3847.66 4908.67 4916.83
5466.74 3881.87 3838.17 4947.1 4922.32
5469.63 3825.83 3802.85 4911.2 4867.98
5472.51 3700.85 3709.11 4745.63 4765.34
5475.4 3600.65 3668.57 4639.18 4715.74
5478.28 3704.21 3670.27 4762.42 4693.54
5481.16 3705.95 3717.03 4679.01 4763.71
5484.05 3740.92 3737.8 4849.69 4770.17
5486.93 3766.53 3790.66 4781.8 4856.93
5489.81 3864.53 3831.84 4939.29 4862.13
5492.7 3864.48 3853.22 4865.3 4897.93
5495.58 3830.67 3809.83 4889.18 4836.85
5498.46 3734.35 3780.99 4756.05 4838.88
5501.34 3777.95 3793.33 4871.41 4865.44
5504.23 3867.7 3828.07 4968.85 4900.45
5507.11 3838.56 3798.01 4861.1 4834.15
5509.99 3687.76 3780.99 4672.52 4782.26
5512.87 3816.66 3756.56 4813.17 4773.01
5515.76 3765.27 3800.12 4833.34 4840.16
5518.64 3818.42 3824.63 4873.97 4877.88
5521.52 3890.19 3820.45 4926.31 4874.28
5524.4 3752.75 3829.51 4822.56 4870.13
5527.28 3845.61 3787.76 4861.52 4816.25
5530.17 3764.92 3830.05 4764.66 4855.65
5533.05 3879.64 3860.55 4940.76 4892.65
5535.93 3937.09 3908.61 4972.52 4939.38
5538.81 3909.09 3935.74 4904.86 4964.99
5541.69 3961.03 3928.22 5017.59 4954.12
5544.57 3914.53 3931.16 4939.91 4970.95
5547.45 3917.92 3925.43 4955.35 4954.34
5550.34 3943.84 3937.54 4967.75 4970.68
5553.22 3950.85 3925.36 4988.92 4984.25
5556.1 3881.4 3946.18 4996.07 5022.21
5558.98 4006.31 3913.89 5081.63 4990.34
5561.86 3853.96 3913.47 4893.31 4953.58
5564.74 3880.15 3832 4885.8 4893.21
5567.62 3761.89 3820.78 4900.52 4867.81
5570.5 3820.28 3745.47 4817.12 4898.05
5573.38 3654.23 3650.98 4976.52 4874.76
5576.26 3478.43 3644.55 4830.64 4885.93
5579.14 3800.98 3731.38 4850.63 4883.53
5582.02 3914.73 3762.23 4969.33 4795.35
5584.9 3570.97 3772.23 4566.08 4784.69
5587.78 3830.99 3694.22 4818.67 4765.17
5590.66 3680.71 3748.91 4910.77 4825.55
5593.54 3735.03 3731.17 4747.23 4841
5596.42 3777.78 3762.17 4865.02 4782.86
5599.3 3773.7 3843.42 4736.35 4901.93
5602.17 3978.77 3926.92 5104.44 4987.73
5605.05 4028.29 3997.77 5122.41 5086.98
5607.93 3986.25 3990.27 5034.1 5062.17
5610.81 3956.28 3933.41 5030 4982.84
5613.69 3857.69 3837.07 4884.41 4871.12
5616.57 3697.23 3811.14 4698.95 4836.62
5619.45 3878.51 3832.53 4926.51 4860.88
5622.33 3921.86 3930.47 4957.18 4964.53
5625.2 3991.04 3899.98 5009.9 4932.12
5628.08 3787.04 3881.56 4829.28 4939.14
5630.96 3866.6 3852.61 4978.24 4938.13
5633.84 3904.2 3916 5006.87 5003.14
5636.72 3977.21 3915.54 5024.3 4976.22
5639.59 3865.21 3921.06 4897.5 4965.59
5642.47 3920.74 3917.85 4974.98 4968.21
5645.35 3967.59 3960.89 5032.15 5018.34
5648.23 3994.35 3959.49 5047.89 5026.23
5651.1 3916.54 3948.8 4998.64 5019.04
5653.98 3935.5 3930.01 5010.58 4999.11
5656.86 3937.98 3927.3 4988.1 4982.74
5659.73 3908.44 3909.61 4949.56 4956.92
5662.61 3882.42 3890.99 4933.1 4967.59
5665.49 3882.11 3933.01 5020.12 5016.11
5668.36 4034.51 3966.2 5095.1 5052.96
5671.24 3981.97 3988.69 5043.67 5051.55
5674.12 3949.59 3999.03 5015.87 5104.76
5676.99 4065.53 4016.75 5254.74 5126.8
5679.87 4035.13 4030.34 5109.78 5134.74
5682.74 3990.37 3977.49 5039.69 5023.13
5685.62 3906.98 3958.03 4919.91 4996.45
5688.5 3976.74 3954.66 5029.73 4981.04
5691.37 3980.24 3972.41 4993.47 5045.01
5694.25 3960.25 3977.42 5111.82 5053.31
5697.12 3991.78 3975.25 5054.63 5063.39
5700 3973.72 3937.7 5023.71 4996.58
5702.87 3847.6 3888.07 4911.39 4964.84
5705.75 3842.9 3844.6 4959.44 4902.92
5708.62 3843.3 3828.93 4837.95 4871.67
5711.5 3800.6 3846.38 4817.63 4908.56
5714.37 3895.24 3892.92 5070.1 4972.35
5717.25 3982.91 3958.9 5029.32 5052.03
5720.12 3998.55 3989.75 5056.67 5073
5723 3987.8 4022.55 5133.02 5129.13
5725.87 4081.3 4048.58 5197.69 5201.34
5728.75 4076.63 4057.54 5273.31 5196.06
5731.62 4014.7 4048.28 5117.17 5176.06
5734.49 4053.51 4071.58 5137.7 5164.4
5737.37 4146.52 4054.66 5238.34 5162.06
5740.24 3963.94 4038.91 5110.13 5171.33
5743.11 4006.28 3971.34 5165.52 5101.84
5745.99 3943.81 3959.2 5029.87 5080.02
5748.86 3927.51 3942.48 5044.67 5038.63
5751.74 3956.12 3956.16 5041.36 5047.84
5754.61 3984.87 3954.94 5057.48 5036.33
5757.48 3923.84 3985.24 5010.15 5091.16
5760.35 4047.02 4004.38 5205.84 5111
5763.23 4042.28 4013.14 5117.01 5140.47
5766.1 3950.14 4034.17 5098.54 5155.97
5768.97 4110.09 4046.58 5252.36 5203.29
5771.84 4079.51 4064.72 5258.99 5199.25
5774.72 4004.56 4004.01 5086.39 5098.35
5777.59 3927.95 3916.18 4949.68 4973.53
5780.46 3816.04 3865.72 4884.52 4896.28
5783.33 3853.16 3813.46 4854.65 4881.61
5786.21 3771.17 3856.59 4905.65 4926.67
5789.08 3945.45 3888.73 5019.72 4990.92
5791.95 3949.56 3962.62 5047.39 5044.42
5794.82 3992.86 3977.42 5066.14 5054.95
5797.69 3989.85 3999.1 5051.31 5107.18
5800.56 4014.6 4019.97 5204.07 5126.41
5803.43 4055.47 4069.95 5123.86 5184.83
5806.31 4139.78 4108.44 5226.54 5185.17
5809.18 4130.08 4119.99 5205.12 5233.98
5812.05 4090.1 4097.68 5270.27 5210.61
5814.92 4072.87 4105.51 5156.46 5232.35
5817.79 4153.56 4134.75 5270.33 5248.81
5820.66 4177.82 4202.53 5319.65 5340.83
5823.53 4276.21 4211.81 5432.5 5358.49
5826.4 4181.4 4235.87 5323.31 5375.13
5829.27 4250.01 4217.85 5369.59 5339.27
5832.14 4222.16 4185.48 5324.93 5290.35
5835.01 4084.26 4164.32 5176.53 5296.12
5837.88 4186.53 4174.02 5386.91 5316.74
5840.75 4251.27 4204.91 5386.8 5353.15
5843.62 4176.92 4195.48 5285.74 5308.63
5846.49 4158.26 4173.63 5253.36 5281.5
5849.36 4185.7 4117.22 5305.4 5207.84
5852.23 4007.69 4091.07 5064.76 5184.28
5855.1 4079.81 4027.86 5182.68 5109.55
5857.96 3996.07 3981.22 5081.21 5086.4
5860.83 3867.77 4009.52 4995.31 5105.99
5863.7 4164.71 4031.05 5241.46 5124.98
5866.57 4060.67 4170.39 5138.17 5275.91
5869.44 4285.78 4209.54 5448.11 5329.34
5872.31 4282.17 4227.55 5401.74 5340.04
5875.17 4114.69 4170.38 5170.26 5254.57
5878.04 4114.27 4120.62 5191.7 5199.6
5880.91 4132.9 4122.23 5236.84 5222.6
5883.78 4119.5 4017.81 5239.25 5092.28
5886.65 3801.02 3760.36 4800.76 4764.36
5889.51 3360.56 3520.72 4253.07 4450.3
5892.38 3400.59 3421.49 4297.07 4334.3
5895.25 3503.32 3486.59 4452.75 4486.15
5898.12 3555.87 3665.66 4708.62 4701.69
5900.98 3937.79 3838.59 4943.69 4914.2
5903.85 4022.1 3957.33 5090.3 5041.91
5906.72 3912.11 3969.85 5091.74 5112.29
5909.58 3975.33 3975.47 5154.84 5129.71
5912.45 4038.96 4063.22 5142.56 5199.38
5915.32 4175.38 4098.81 5300.74 5201.88
5918.18 4082.07 4075.7 5162.32 5208.95
5921.05 3969.65 4047.57 5163.78 5169.71
5923.92 4090.98 4113.03 5183.03 5245.05
5926.78 4278.47 4167.48 5388.32 5270.29
5929.65 4132.98 4153.11 5239.52 5253.78
5932.51 4047.9 4119.47 5133.49 5204.31
5935.38 4177.53 4136.47 5239.91 5226.01
5938.24 4183.99 4131.26 5304.63 5261.09
5941.11 4032.27 4084.45 5238.73 5266.4
5943.97 4037.08 4078.61 5255.84 5261.87
5946.84 4166.49 4067.66 5291.05 5193.13
5949.7 3999.42 4046.83 5032.49 5141.19
5952.57 3974.59 4015.9 5100.03 5132.2
5955.43 4073.68 4077.63 5264.06 5218.49
5958.3 4184.61 4100.71 5291.37 5256.36
5961.16 4043.83 4128.56 5213.65 5273.26
5964.03 4157.24 4140.17 5314.78 5296.08
5966.89 4219.43 4177.13 5359.8 5337.02
5969.76 4154.73 4099.92 5336.49 5257.04
5972.62 3925.59 4082.63 5074.82 5227.18
5975.48 4167.57 4070.67 5270.24 5167.98
5978.35 4118.84 4096.67 5158.89 5174.5
5981.21 4003.6 4019.29 5094.38 5106.99
5984.07 3935.43 3939.74 5067.69 5068.08
5986.94 3880.18 3943.85 5042.16 5090.07
5989.8 4015.93 4041.22 5160.35 5191.7
5992.66 4227.54 4104.2 5372.59 5228.09
5995.53 4069.14 4158.29 5151.32 5265.11
5998.39 4178.18 4104.72 5271.43 5206.71
6001.25 4066.86 4152.3 5197.37 5271.05
6004.11 4211.85 4128.75 5344.34 5244.46
6006.98 4107.54 4117.35 5191.68 5212.94
6009.84 4032.67 4055.85 5102.79 5153.47
6012.7 4027.34 3994.13 5165.94 5111.34
6015.56 3922.38 3980.68 5065.28 5108.99
6018.43 3992.32 3980.63 5095.76 5083.38
6021.29 4027.18 4004.46 5089.08 5074.01
6024.15 3993.88 4051.82 5037.19 5126.4
6027.01 4134.41 4051.67 5252.92 5163.68
6029.87 4026.73 4094.58 5200.94 5219.54
6032.73 4122.6 4065.98 5204.76 5177.53
6035.59 4048.59 4095.16 5126.88 5177.58
6038.45 4114.28 4129.23 5201.11 5227.64
6041.32 4224.8 4176.08 5354.94 5291.43
6044.18 4189.14 4210.18 5318.23 5328.3
6047.04 4216.61 4191.79 5311.73 5297.71
6049.9 4169.63 4188.07 5263.18 5306.26
6052.76 4177.98 4159.88 5343.86 5293.61
6055.62 4132.03 4116.56 5273.79 5240.31
6058.48 4039.67 4109.23 5103.26 5204.71
6061.34 4156 4110.95 5237.08 5213.42
6064.2 4137.19 4119.98 5299.91 5259.18
6067.06 4066.74 4126.56 5240.57 5275.22
6069.92 4175.76 4124.67 5285.18 5276.45
6072.78 4131.52 4138.06 5303.61 5286.99
6075.64 4106.9 4147.66 5272.18 5293.72
6078.49 4204.55 4130.73 5305.37 5240.87
6081.35 4080.73 4121.61 5145.07 5196.81
6084.21 4079.53 4101.5 5140 5167.08
6087.07 4144.22 4083.15 5216.16 5146.75
6089.93 4025.7 4070.29 5084.08 5155.61
6092.79 4040.94 4063.88 5166.6 5145.67
6095.65 4124.99 4078.47 5186.32 5188.58
6098.51 4069.49 4102.47 5212.82 5202.81
6101.36 4112.94 4069.98 5209.27 5173.66
6104.22 4027.52 4039.04 5098.88 5140.41
6107.08 3976.66 4048.86 5113.08 5152.97
6109.94 4142.39 4086.37 5246.95 5186.07
6112.79 4140.07 4116.12 5198.19 5194.69
6115.65 4065.9 4074.55 5138.92 5139.55
6118.51 4017.7 4039.3 5081.53 5098.7
6121.37 4034.29 4016.35 5075.64 5064.3
6124.22 3997.06 4015.83 5035.73 5058.4
6127.08 4016.14 4032.44 5063.83 5122.11
6129.94 4084.12 4049.32 5266.77 5157.67
6132.79 4047.69 4042.46 5142.41 5155.19
6135.65 3995.58 3987.35 5056.39 5076.9
6138.51 3918.78 4001.92 5031.9 5081.54
6141.36 4091.38 4038.57 5156.35 5129.71
6144.22 4105.54 4062 5200.88 5160.45
6147.07 3989.07 4064.68 5124.13 5157.33
6149.93 4099.44 4023.95 5146.98 5091.64
6152.79 3983.33 4027.96 5003.82 5058.95
6155.64 4001.12 3917.45 5026.05 4953.25
6158.5 3767.89 3845.12 4829.88 4868.26
6161.35 3766.35 3813.97 4748.85 4832.57
6164.21 3907.68 3808.22 4918.98 4813.73
6167.06 3750.62 3828.3 4773.35 4867.04
6169.92 3826.6 3835.68 4908.78 4872
6172.77 3929.82 3905.63 4933.86 4950.61
6175.63 3960.47 4004.83 5009.18 5039.73
6178.48 4124.2 4056.65 5176.16 5131.83
6181.33 4085.29 4085.25 5210.15 5160.74
6184.19 4046.26 4076.93 5095.92 5148.8
6187.04 4099.23 4048.5 5140.32 5088.39
6189.9 3999.99 4033.02 5028.93 5072.27
6192.75 3999.83 4004.81 5047.55 5041.88
6195.6 4014.6 4042.06 5049.15 5088.98
6198.46 4111.76 4082.77 5170.24 5126.99
6201.31 4121.96 4107.03 5161.58 5157.22
6204.16 4087.37 4072.44 5139.83 5136.2
6207.02 4007.98 4030.84 5107.18 5091.38
6209.87 3997.17 4004.39 5027.13 5055.42
6212.72 4008.03 4003.03 5031.93 5061.05
6215.58 4003.89 3987.54 5124.08 5039.82
6218.43 3950.7 4006.81 4963.45 5064.61
6221.28 4065.85 4031.54 5106.31 5070.22
6224.13 4078.07 4032.21 5140.9 5082.19
6226.98 3952.69 3987.08 4999.35 5051.95
6229.84 3930.49 3994.41 5015.6 5053.43
6232.69 4100.05 4028.23 5145.34 5087.19
6235.54 4054.14 4054.61 5100.63 5104.57
6238.39 4009.65 3947.04 5067.75 4972.14
6241.24 3777.32 3919.77 4748.05 4938.25
6244.09 3972.33 3899.48 4998.94 4904
6246.94 3948.8 3955.65 4965.01 4974.83
6249.8 3945.83 3947.83 4960.53 4950.42
6252.65 3948.85 3900.77 4925.71 4924.22
6255.5 3807.64 3876.39 4886.43 4884.56
6258.35 3872.66 3817.51 4841.53 4859.57
6261.2 3772.22 3862.16 4850.74 4872.4
6264.05 3941.61 3939.77 4924.93 4974.16
6266.9 4105.49 4013.48 5146.82 5026.75
6269.75 3993.34 4019.82 5008.48 5042.29
6272.6 3960.63 3959.55 4971.55 4958.32
6275.45 3924.68 3857.44 4894.94 4852.26
6278.3 3687.01 3794.49 4690.28 4777.18
6281.15 3771.77 3749.9 4746.32 4752.06
6284 3790.93 3819.34 4819.59 4814.69
6286.84 3895.34 3898.39 4878.17 4892.32
6289.69 4008.9 3904.7 4979.2 4915.81
6292.54 3809.86 3888.56 4890.04 4904.56
6295.39 3846.91 3841.66 4844.45 4843.47
6298.24 3868.22 3782.31 4795.91 4812.32
6301.09 3631.81 3755.95 4796.6 4789.65
6303.94 3767.82 3765.36 4776.43 4814.43
6306.78 3896.45 3829.34 4870.27 4848.97
6309.63 3823.75 3828.86 4900.22 4826.92
6312.48 3766.38 3795.55 4710.27 4786.65
6315.33 3796.52 3812.67 4749.45 4783.63
6318.18 3875.12 3859.96 4891.18 4848.86
6321.02 3908.25 3895.28 4905.97 4891.65
6323.87 3902.46 3915.79 4877.82 4900.13
6326.72 3936.65 3946.13 4916.62 4929.82
6329.56 3999.28 3944.45 4995.03 4923.14
6332.41 3897.43 3916.09 4857.77 4885.38
6335.26 3851.57 3844.62 4803.34 4820.23
6338.1 3784.87 3809.33 4799.59 4806.98
6340.95 3791.56 3817.4 4818.01 4841.6
6343.8 3875.78 3866.01 4907.19 4880.62
6346.64 3930.7 3912.82 4916.66 4895.48
6349.49 3932 3919.17 4862.59 4876.31
6352.33 3894.8 3919.32 4849.69 4877.22
6355.18 3931.17 3882.5 4919.39 4841.32
6358.03 3821.52 3851.43 4754.87 4839.27
6360.87 3801.6 3895.99 4843.56 4875.21
6363.72 4064.84 3949.65 5027.2 4939.86
6366.56 3982.51 3959.6 4948.83 4951.54
6369.41 3831.46 3921.8 4878.59 4906.71
6372.25 3951.44 3941.19 4892.71 4923.03
6375.1 4040.67 3989.81 4997.79 4932.77
6377.94 3977.31 3972.56 4907.81 4940.24
6380.78 3899.71 3930.32 4915.1 4890.9
6383.63 3913.93 3893.76 4849.79 4882.49
6386.47 3867.66 3907.21 4882.59 4874.68
6389.32 3940.04 3883.49 4891.68 4833.05
6392.16 3842.76 3905.18 4724.88 4853.83
6395 3932.72 3842 4944.93 4790.1
6397.85 3750.51 3849.09 4700.47 4808.44
6400.69 3864.05 3845 4779.92 4782.01
6403.53 3920.44 3858.4 4865.64 4800.59
6406.38 3790.7 3843.92 4756.21 4791.63
6409.22 3820.63 3821.95 4753.05 4782.93
6412.06 3854.53 3850.05 4839.53 4797.68
6414.9 3874.99 3860.54 4800.45 4813.25
6417.75 3852.11 3842.79 4799.78 4762.66
6420.59 3801.28 3863.4 4687.76 4775.96
6423.43 3936.79 3893.85 4840.34 4809.44
6426.27 3943.47 3955.35 4900.23 4885.48
6429.11 3985.8 3928.15 4915.88 4867.23
6431.96 3855.17 3930.64 4785.58 4855.11
6434.8 3950.95 3876.73 4863.88 4789.67
6437.64 3824.06 3826.19 4719.54 4736.42
6440.48 3703.57 3795.48 4625.83 4728.79
6443.32 3858.82 3798.44 4840.99 4723.82
6446.16 3832.92 3862.78 4704.65 4787.55
6449 3896.61 3844.77 4817.01 4734.94
6451.84 3804.79 3846.38 4683.15 4747.37
6454.68 3837.75 3824.64 4741.96 4718.06
6457.52 3831.37 3838.6 4729.05 4744.71
6460.36 3846.69 3810.6 4763.1 4710.36
6463.2 3753.75 3839.13 4638.91 4746.22
6466.04 3916.96 3813.92 4836.63 4717.35
6468.88 3771.05 3845.87 4676.49 4737.52
6471.72 3849.59 3836.64 4699.43 4713.81
6474.56 3889.26 3854.31 4765.52 4722.76
6477.4 3824.09 3857.64 4703.34 4734.45
6480.24 3859.56 3849.93 4734.49 4730.72
6483.08 3866.14 3900.07 4754.34 4791.82
6485.92 3974.5 3846.91 4886.65 4728.7
6488.76 3700.09 3769.94 4545.1 4642.76
6491.6 3635.24 3643.48 4496.54 4491.07
6494.43 3595.1 3611.93 4431.56 4460.48
6497.27 3605.43 3664.27 4453.34 4548.82
6500.11 3792.26 3750.32 4761.57 4663.53
6502.95 3853.27 3834.87 4775.67 4755.62
6505.79 3859.07 3859.81 4729.61 4756.21
6508.62 3867.1 3853.36 4763.35 4730.83
6511.46 3833.91 3824.18 4699.54 4712.88
6514.3 3771.54 3836.26 4675.75 4720.59
6517.13 3903.31 3831.73 4786.48 4718.8
6519.97 3820.34 3851.56 4694.16 4729.81
6522.81 3831.02 3801.86 4708.79 4696.15
6525.64 3754.22 3814.82 4685.49 4712.02
6528.48 3859.23 3791.17 4741.77 4710.41
6531.32 3760.06 3793.41 4703.99 4676.68
6534.15 3760.93 3816.86 4584.27 4698.15
6536.99 3929.58 3712.19 4806.2 4699.1
6539.83 3446.05 3598.21 4706.84 4718.87
6542.66 3419 3422.33 4643.58 4653.22
6545.5 3401.94 3418.15 4609.25 4638.37
6548.33 3433.51 3400.31 4662.27 4587.38
6551.17 3365.49 3350.55 4490.63 4544.95
6554 3252.66 3284.46 4481.96 4434.83
6556.84 3235.23 3133.5 4331.89 4256.42
6559.67 2912.61 2983.43 3955.41 4008.06
6562.51 2802.44 2922.7 3736.87 3910.73
6565.34 3053.06 3018.97 4039.9 4005.32
6568.18 3201.42 3195.27 4239.19 4243.52
6571.01 3331.34 3331.48 4451.48 4422.52
6573.84 3461.68 3424.92 4576.88 4532.54
6576.68 3481.73 3487.5 4569.25 4593.15
6579.51 3519.09 3486.93 4633.31 4608.05
6582.34 3459.98 3486.34 4621.59 4610.83
6585.18 3479.96 3464.67 4577.58 4570.2
6588.01 3454.08 3457.01 4511.42 4563.08
6590.84 3436.98 3473.97 4600.24 4584.03
6593.68 3530.84 3472.66 4640.43 4627.55
6596.51 3450.16 3486.96 4641.98 4643.24
6599.34 3479.86 3494.18 4647.33 4650.1
6602.17 3552.53 3545.59 4661.01 4696.59
6605.01 3604.37 3560.69 4781.44 4686.1
6607.84 3525.17 3537.88 4615.84 4672.81
6610.67 3484.09 3525.54 4621.13 4645.48
6613.5 3567.35 3538.17 4699.45 4667.24
6616.33 3563.05 3532.66 4681.15 4649.3
6619.17 3467.59 3544.16 4567.29 4668.84
6622 3601.84 3550.91 4758.07 4671.98
6624.83 3583.3 3531.94 4690.58 4650.76
6627.66 3410.67 3463.93 4503.61 4580.19
6630.49 3397.83 3436.8 4546.37 4548.61
6633.32 3501.9 3455.94 4595.84 4586.43
6636.15 3468.09 3484.03 4617.08 4593.55
6638.98 3482.09 3517.6 4567.74 4621.91
6641.81 3602.63 3570.71 4680.91 4659.45
6644.64 3627.41 3583.33 4729.69 4685.37
6647.47 3519.95 3566.97 4645.51 4676.82
6650.3 3553.55 3559.78 4655.27 4669.57
6653.13 3605.83 3542.34 4707.92 4650.68
6655.96 3467.65 3598.18 4588.86 4713.2
6658.79 3721.07 3571.04 4842.82 4688.37
6661.62 3524.39 3595.93 4633.44 4688.93
6664.45 3542.33 3588.47 4590.52 4673.97
6667.28 3698.69 3601.26 4797.95 4671.18
6670.1 3562.76 3600.26 4625.05 4682.65
6672.93 3539.32 3544.76 4624.94 4611.73
6675.76 3532.19 3542.87 4585.19 4592.85
6678.59 3557.09 3568.98 4568.4 4601.62
6681.42 3617.67 3576.13 4651.27 4599.81
6684.24 3553.63 3588.2 4579.76 4630.16
6687.07 3593.31 3581.81 4659.46 4633.85
6689.9 3598.49 3570.71 4662.32 4642.22
6692.73 3520.33 3546.91 4604.88 4603.57
6695.55 3521.91 3521.32 4543.51 4582.6
6698.38 3521.72 3524.23 4599.41 4569.92
6701.21 3529.07 3513.5 4566.83 4558.51
6704.03 3489.69 3495.06 4509.29 4527.56
6706.86 3466.41 3497.14 4506.55 4528.88
6709.69 3535.32 3492.83 4570.8 4536.02
6712.51 3476.75 3503.89 4530.71 4533
6715.34 3499.6 3518.72 4497.49 4539.6
6718.16 3579.79 3575.83 4590.59 4567.17
6720.99 3648.1 3569.05 4613.44 4556.95
6723.82 3479.26 3548.6 4466.83 4548.42
6726.64 3518.44 3501.77 4564.98 4542.62
6729.47 3507.62 3506.71 4596.06 4544.8
6732.29 3494.08 3533.08 4473.36 4567.04
6735.12 3597.53 3532.78 4631.69 4548.66
6737.94 3506.74 3563.75 4540.94 4595.45
6740.77 3586.97 3539.92 4613.7 4547.27
6743.59 3526.05 3536.85 4487.18 4533.11
6746.41 3497.54 3527.13 4498.44 4508.71
6749.24 3557.8 3492.72 4540.51 4478.35
6752.06 3422.81 3534.99 4396.1 4538.33
6754.89 3624.37 3522.31 4678.37 4511.04
6757.71 3519.75 3564.07 4458.64 4557.3
6760.53 3548.08 3545.92 4534.88 4509.75
6763.36 3569.94 3528.31 4535.73 4489.89
6766.18 3466.9 3520.04 4399.08 4469.94
6769 3523.28 3527.88 4475.02 4490.64
6771.82 3593.47 3577.73 4597.82 4542.77
6774.65 3616.46 3597.91 4555.45 4554.8
6777.47 3583.8 3544.14 4511.12 4488.36
6780.29 3432.15 3481.95 4398.51 4437.78
6783.11 3429.9 3477.29 4403.71 4431.91
6785.93 3569.83 3536.02 4493.5 4479.59
6788.76 3608.32 3580.55 4541.56 4519.05
6791.58 3563.51 3553.81 4522.09 4488.75
6794.4 3489.59 3545.16 4402.59 4462.87
6797.22 3582.38 3553.54 4463.92 4458.25
6800.04 3588.65 3546.63 4508.25 4443.85
6802.86 3468.88 3528.44 4359.37 4440.78
6805.68 3527.78 3510.06 4454.71 4419
6808.5 3533.53 3533 4442.9 4443.27
6811.32 3537.69 3497.67 4432.19 4397.05
6814.14 3421.79 3482.2 4316.05 4373.65
6816.96 3487.12 3476.48 4372.7 4377.43
6819.78 3520.54 3519.17 4443.53 4426.11
6822.6 3549.87 3506.79 4462.09 4421.35
6825.42 3449.97 3490.89 4358.43 4403.39
6828.24 3472.84 3501.65 4389.64 4403.16
6831.06 3582.14 3485.87 4461.41 4365
6833.88 3402.64 3512.34 4243.93 4369.55
6836.7 3552.25 3462.59 4403.29 4316.07
6839.52 3432.9 3435.31 4300.99 4290.3
6842.34 3320.8 3398.15 4166.62 4252.79
6845.15 3440.74 3379.13 4290.76 4233.95
6847.97 3375.83 3447.49 4244.47 4298.5
6850.79 3525.88 3384.46 4360.28 4235.6
6853.61 3251.67 3432.38 4102.06 4256.21
6856.43 3519.6 3440.08 4306.29 4264.15
6859.24 3548.98 3465.51 4384.1 4267.24
6862.06 3327.94 3302.65 4111.34 4088.03
6864.88 3031.04 3023.02 3768.65 3764.46
6867.7 2710.06 2796.58 3413.38 3501.23
6870.51 2648.62 2666.96 3321.66 3347.23
6873.33 2642.19 2752.67 3306.66 3428.23
6876.15 2967.2 2866.1 3656.36 3539.66
6878.96 2988.91 3006.44 3655.95 3687.78
6881.78 3063.21 3028.38 3751.03 3709.49
6884.59 3033.02 3056.06 3721.48 3757.99
6887.41 3071.95 3030.48 3801.46 3740.64
6890.23 2986.47 3045.89 3698.99 3790.86
6893.04 3079.25 3061.17 3872.13 3788.96
6895.86 3117.79 3161.78 3795.76 3897.32
6898.67 3288.3 3196.09 4024.07 3910.11
6901.49 3182.18 3194.25 3910.49 3905.77
6904.3 3112.26 3192.32 3782.76 3889.24
6907.12 3282.53 3189.52 3974.47 3880.11
6909.93 3173.77 3190.29 3883.1 3918.34
6912.74 3114.57 3159.81 3897.44 3915.07
6915.56 3191.1 3169.14 3964.67 3914.51
6918.37 3201.75 3162.33 3881.44 3912.96
6921.19 3094.15 3183.51 3892.77 3922.7
6924 3254.61 3202.07 3993.89 3961.6
6926.81 3257.44 3268.15 3998.13 4008.04
6929.63 3292.41 3250.59 4032.1 3977.89
6932.44 3201.94 3242.44 3903.44 3947.26
6935.25 3232.98 3184 3906.24 3897.22
6938.06 3117.08 3205.53 3881.98 3954.23
6940.88 3266.53 3179.91 4074.48 3918.31
6943.69 3156.11 3240.18 3798.46 3943.87
6946.5 3297.9 3231.03 3958.68 3905.21
6949.31 3239.07 3271.51 3958.48 3963.69
6952.12 3277.57 3244.69 3973.9 3956.96
6954.94 3217.43 3293.22 3938.5 3988.91
6957.75 3384.66 3305.64 4054.34 3998.44
6960.56 3314.83 3338.9 4002.47 4041.62
6963.37 3317.21 3340.45 4068.06 4061.55
6966.18 3389.31 3320.77 4114.13 4047.74
6968.99 3255.79 3308.42 3961.01 4013.7
6971.8 3280.14 3271.26 3965.95 3957.93
6974.61 3277.84 3235.21 3946.83 3944
6977.42 3147.65 3208.4 3919.21 3910.11
6980.23 3199.71 3165.19 3864.3 3889.69
6983.04 3148.22 3226.52 3885.56 3915.18
6985.85 3331.63 3235.31 3995.66 3922.84
6988.66 3226.08 3252.17 3887.29 3909.61
6991.47 3198.79 3183.13 3845.89 3821.2
6994.28 3124.51 3166.55 3730.42 3820.18
6997.09 3176.35 3142.6 3884.22 3786.49
6999.9 3126.95 3160.02 3744.83 3809.38
7002.71 3176.77 3164.8 3799.1 3777.39
7005.52 3190.69 3168.2 3788.23 3785.24
7008.32 3137.14 3163.19 3768.39 3769.88
7011.13 3161.73 3119.6 3753.02 3750.99
7013.94 3059.93 3117.04 3731.56 3741.79
7016.75 3129.46 3100.36 3740.77 3740.64
7019.56 3111.68 3119.62 3749.59 3733.01
7022.36 3117.71 3086.38 3708.67 3702.9
7025.17 3029.74 3076.97 3650.44 3675.36
7027.98 3083.46 3105.26 3666.95 3717.19
7030.78 3202.57 3131.47 3834.16 3733.51
7033.59 3108.37 3169.3 3699.42 3775.73
7036.4 3196.97 3159.13 3793.61 3776.18
7039.2 3172.05 3213.25 3835.51 3840.82
7042.01 3270.73 3239.31 3893.32 3864.71
7044.82 3275.16 3255.45 3865.3 3857.76
7047.62 3220.46 3204.77 3814.66 3801.82
7050.43 3118.7 3173.97 3725.49 3771.35
7053.23 3182.75 3178.1 3773.91 3774.65
7056.04 3232.85 3177.53 3824.54 3769.6
7058.84 3116.99 3166.61 3710.35 3750.77
7061.65 3149.99 3118.27 3717.41 3689.64
7064.45 3087.82 3125.77 3641.16 3681.23
7067.26 3139.49 3124.4 3685.1 3671.99
7070.06 3145.87 3149.16 3689.71 3717.01
7072.87 3162.11 3172.12 3776.22 3742.45
7075.67 3208.39 3195.2 3761.41 3784.93
7078.47 3215.11 3175.89 3817.16 3747.68
7081.28 3104.16 3176.32 3664.48 3761.37
7084.08 3209.68 3133.27 3802.47 3696.86
7086.89 3085.98 3170.66 3623.63 3735.4
7089.69 3216.32 3174.61 3780.1 3738.42
7092.49 3221.54 3191.46 3811.52 3764.11
7095.29 3136.52 3162.81 3700.7 3719.53
7098.1 3130.36 3130.81 3646.37 3681.3
7100.9 3125.56 3132.04 3696.82 3675.52
7103.7 3140.2 3125.75 3683.37 3675.84
7106.5 3111.49 3115.21 3647.32 3662
7109.31 3093.94 3129.48 3655.33 3666.14
7112.11 3183.01 3091.34 3695.77 3620.77
7114.91 2997.08 3083.91 3511.22 3598.16
7117.71 3071.64 3034.17 3587.49 3549.31
7120.51 3033.78 3067.3 3549.22 3574.9
7123.31 3096.47 3066.3 3587.99 3553.26
7126.11 3068.66 3056.78 3522.57 3519.76
7128.91 3005.22 3065.82 3448.72 3536.38
7131.71 3123.59 3047.3 3637.86 3552.68
7134.51 3013.07 3080.67 3571.45 3604.43
7137.31 3105.34 3039.57 3604 3535.66
7140.11 3000.3 3045.14 3431.53 3526.06
7142.91 3029.79 3002.52 3542.66 3472.11
7145.71 2977.48 3002.85 3442.14 3469.07
7148.51 3001.26 2961.37 3422.42 3414.98
7151.31 2905.37 2984.33 3380.39 3434.44
7154.11 3046.35 2953.89 3500.52 3436.53
7156.91 2909.96 2966.56 3428.67 3426.24
7159.71 2943.37 2888.65 3349.51 3339.48
7162.51 2812.64 2870.25 3240.25 3298.25
7165.31 2854.76 2844.92 3304.98 3281.81
7168.1 2867.37 2825.77 3300.2 3246.95
7170.9 2755.18 2785.58 3135.65 3187.65
7173.7 2734.2 2748.87 3127.1 3141.85
7176.5 2757.24 2719.61 3162.8 3120.81
7179.29 2667.4 2658.15 3072.52 3057.16
7182.09 2549.82 2576.94 2936.15 2966.45
7184.89 2513.59 2531.56 2890.68 2909.07
7187.68 2531.27 2481.47 2900.38 2848.93
7190.48 2399.57 2478.88 2755.72 2838.97
7193.28 2505.81 2441.58 2860.82 2808.82
7196.07 2419.38 2480.84 2809.9 2845.93
7198.87 2517.32 2503.04 2867.08 2868.63
7201.67 2572.41 2559.07 2928.92 2913.61
7204.46 2587.49 2618.66 2944.84 2984.44
7207.26 2696.1 2659.85 3079.57 3037.99
7210.05 2695.98 2693.94 3089.55 3080.17
7212.85 2689.75 2755.51 3071.38 3140.33
7215.64 2880.81 2759.02 3260.06 3128.73
7218.44 2706.52 2785.61 3054.75 3153.35
7221.23 2769.5 2749.96 3145.23 3112.49
7224.03 2773.88 2743.87 3137.49 3121.44
7226.82 2688.25 2721.65 3081.59 3120.57
7229.61 2702.82 2661.62 3142.62 3051.56
7232.41 2593.8 2684.61 2930.45 3041.91
7235.2 2757.22 2657.32 3052.64 2954.7
7238 2620.93 2708.31 2881.01 2999.66
7240.79 2746.77 2705.45 3065.33 3017.12
7243.58 2748.63 2710.69 3105.02 3116.71
7246.37 2636.65 2770.1 3179.78 3185.22
7249.17 2925 2809.6 3270.85 3215.82
7251.96 2867.14 2851.88 3196.83 3183.58
7254.75 2763.5 2771.29 3083.04 3097.5
7257.54 2683.25 2668.2 3012.61 2991.68
7260.34 2557.84 2618.73 2879.4 2951.85
7263.13 2615.1 2631.91 2963.53 2972.84
7265.92 2722.79 2675.93 3075.6 3009.06
7268.71 2689.91 2689.29 2988.05 3010.47
7271.5 2655.19 2656.3 2967.76 2961.14
7274.29 2623.79 2662.38 2927.6 2945.8
7277.08 2708.16 2685.72 2942.05 2971.45
7279.87 2725.21 2669.47 3044.71 2958.12
7282.67 2575.05 2655.54 2887.61 2959.01
7285.46 2666.37 2543.87 2944.72 2837.88
7288.25 2390.18 2527.13 2681.32 2797.75
7291.04 2524.84 2493.54 2767.22 2767.04
7293.83 2565.6 2585.47 2852.58 2855.59
7296.61 2665.98 2645.54 2946.95 2935.58
7299.4 2705.04 2658.63 3007.22 2943.39
7302.19 2604.88 2583.94 2875.99 2855.23
7304.98 2441.91 2532.66 2682.48 2790.88
7307.77 2551.2 2494.04 2814.17 2791.39
7310.56 2489.01 2482.14 2877.53 2835.37
7313.35 2406.21 2545.7 2814.42 2897.1
7316.14 2741.86 2602.38 2999.37 2920.83
7318.92 2659.06 2689.82 2948.71 2974.68
7321.71 2668.55 2673.82 2975.97 2954.89
7324.5 2693.85 2686.24 2940 2977.61
7327.29 2696.32 2698.56 3016.87 2990.31
7330.07 2705.52 2739.95 3014.05 3033.73
7332.86 2818.01 2797.51 3070.26 3066.37
7335.65 2869.01 2818.9 3114.8 3068.86
7338.44 2769.69 2748.14 3021.51 3055.3
7341.22 2605.73 2694.55 3029.6 3010.02
7344.01 2708.22 2674.72 2978.95 2993.94
7346.79 2710.21 2650.63 2973.28 2932.4
7349.58 2533.46 2630.02 2844.96 2913.58
7352.37 2646.39 2613.32 2922.49 2895.11
7355.15 2660.12 2682.13 2917.9 2944.42
7357.94 2739.89 2670.12 2992.89 2946.24
7360.72 2610.34 2672.91 2927.94 2917.34
7363.51 2668.48 2654.46 2831.2 2886.35
7366.29 2684.55 2634.25 2899.91 2871.26
7369.08 2549.73 2620.54 2882.67 2881.29
7371.86 2627.35 2603.85 2861.3 2892.63
7374.64 2634.47 2656.33 2933.91 2904.31
7377.43 2707.18 2654.71 2917.72 2910.07
7380.21 2622.47 2632.8 2878.6 2862.83
7383 2568.74 2618.92 2792.18 2857.7
7385.78 2665.54 2599.82 2902.33 2825.85
7388.56 2565.17 2594.75 2783.03 2822.68
7391.35 2553.55 2600.57 2782.67 2806.39
7394.13 2682.99 2633.44 2853.46 2812.3
7396.91 2663.78 2682.7 2800.78 2844.52
7399.69 2701.34 2672.2 2879.32 2834.97
7402.48 2651.49 2614.03 2824.8 2792.19
7405.26 2489.26 2588.72 2672.44 2774.71
7408.04 2625.41 2522.58 2826.9 2731.82
7410.82 2453.06 2572.09 2696.12 2780.31
7413.6 2637.8 2565.78 2817.92 2787.48
7416.38 2606.47 2597.99 2848.4 2819.31
7419.17 2549.69 2597.91 2791.62 2821.86
7421.95 2637.56 2609.91 2825.56 2829.86
7424.73 2642.47 2646.77 2872.39 2851.37
7427.51 2660.29 2636.04 2856.17 2852.67
7430.29 2605.37 2644.32 2829.45 2837.72
7433.07 2667.32 2603.23 2827.55 2798.04
7435.85 2537 2601.18 2737.13 2766.07
7438.63 2599.22 2569.58 2733.54 2735.48
7441.41 2572.51 2585.3 2735.77 2752.77
7444.19 2584.17 2562.59 2789.01 2751.62
7446.97 2531.09 2588.71 2730.1 2770.79
7449.75 2650.88 2609.59 2793.26 2785.47
7452.52 2646.79 2649.45 2833.04 2808.25
7455.3 2650.69 2644.71 2798.43 2797.58
7458.08 2636.64 2595.16 2761.26 2735.59
7460.86 2498.14 2574.57 2647.09 2710.92
7463.64 2588.95 2546.14 2724.4 2682.96
7466.42 2551.34 2583.93 2677.39 2709.83
7469.19 2611.51 2598.29 2727.71 2720.12
7471.97 2632.01 2579.95 2755.26 2744.1
7474.75 2496.33 2519.93 2749.34 2758.98
7477.53 2431.45 2449.83 2772.33 2772.1
7480.3 2421.71 2357.96 2794.64 2726.73
7483.08 2220.73 2339.31 2613.22 2704.65
7485.86 2375.49 2286.9 2706.08 2631.61
7488.63 2264.48 2275.6 2575.55 2602.72
7491.41 2186.84 2246.22 2526.55 2581.33
7494.18 2287.34 2274.52 2641.89 2607.9
7496.96 2349.37 2321.52 2655.25 2651.19
7499.73 2327.84 2344.92 2656.42 2650.94
7502.51 2357.56 2352 2641.16 2649.62
7505.28 2370.59 2363.29 2651.27 2656.26
7508.06 2361.72 2327.29 2676.34 2635.23
7510.83 2249.56 2312.79 2578.09 2628.06
7513.61 2327.1 2315.41 2629.74 2629.03
7516.38 2369.57 2349.29 2679.26 2645.85
7519.16 2351.21 2347.64 2628.53 2633.01
7521.93 2322.15 2320.18 2591.23 2605.67
7524.7 2287.2 2342.65 2597.24 2628.84
7527.48 2418.61 2317.21 2698.04 2586.8
7530.25 2245.83 2314.89 2465.13 2568.38
7533.02 2280.22 2238.53 2541.97 2489.05
7535.8 2189.55 2250.9 2460.04 2517.1
7538.57 2282.94 2262.39 2549.28 2520.31
7541.34 2314.68 2308.36 2551.6 2558.27
7544.12 2327.46 2281.39 2573.92 2526.96
7546.89 2202.03 2240.67 2455.36 2482.89
7549.66 2192.51 2203.64 2419.39 2447.94
7552.43 2216.38 2203.57 2469.08 2428.12
7555.2 2201.81 2229.52 2395.88 2455.95
7557.97 2270.36 2239.21 2502.88 2458.85
7560.75 2245.47 2283.7 2477.78 2499.78
7563.52 2335.26 2281.54 2518.69 2500.36
7566.29 2263.87 2276.26 2504.62 2501.57
7569.06 2229.64 2229.24 2481.39 2456.17
7571.83 2194.2 2203.09 2382.5 2421.88
7574.6 2185.43 2196.39 2401.74 2405.5
7577.37 2209.54 2214.64 2432.26 2440.73
7580.14 2248.94 2200.96 2488.19 2413.58
7582.91 2144.39 2183.37 2320.29 2383.13
7585.68 2156.77 2101.68 2340.91 2300.8
7588.45 2003.86 2002.78 2241.21 2214.17
7591.21 1847.71 1735.3 2060.39 1959.36
7593.98 1354.34 1400.55 1576.48 1589.57
7596.75 999.604 1030.94 1131.84 1190.61
7599.52 738.872 790.485 863.501 904.776
7602.29 632.979 660.032 718.987 752.932
7605.06 608.245 636.263 676.307 708.714
7607.82 667.566 699.789 730.847 743.524
7610.59 823.557 874.176 823.418 918.4
7613.36 1131.41 1146.96 1200.94 1187.66
7616.13 1485.92 1345.66 1538.63 1409.37
7618.89 1419.66 1414.04 1488.56 1492.65
7621.66 1336.52 1322.75 1450.77 1413.19
7624.43 1212.07 1227.96 1300.25 1326.27
7627.19 1135.29 1142.99 1227.78 1235.45
7629.96 1081.61 1121.22 1178.31 1205.76
7632.72 1146.77 1159.93 1211.19 1225.06
7635.49 1251.41 1221.68 1285.68 1270.29
7638.26 1266.88 1269.34 1314 1319.55
7641.02 1289.75 1317.86 1358.97 1376.9
7643.79 1396.95 1383.87 1457.73 1445.84
7646.55 1464.9 1474.59 1520.83 1546.34
7649.32 1561.92 1545.62 1660.47 1627.39
7652.08 1610.05 1577.41 1700.87 1661.52
7654.84 1560.27 1608.38 1623.22 1682.81
7657.61 1654.82 1659.75 1724.34 1714.38
7660.37 1764.18 1722.42 1795.59 1788.19
7663.14 1748.26 1757.09 1844.65 1817.46
7665.9 1758.83 1781.96 1812.13 1856.14
7668.66 1838.78 1873.93 1911.63 1935.71
7671.43 2024.19 1936.54 2083.36 2005.01
7674.19 1946.65 1957.78 2020.03 2032.93
7676.95 1902.5 1954.7 1995.41 2037.46
7679.71 2014.95 1947.42 2096.95 2041.66
7682.48 1924.79 1957.71 2032.61 2033.84
7685.24 1933.38 1968.52 1971.96 2039.39
7688 2047.4 2004.74 2113.6 2071.66
7690.76 2033.44 2009.05 2129.41 2083.05
7693.52 1946.32 1976.88 2006.13 2051.8
7696.29 1950.89 1972.98 2019.86 2023.41
7699.05 2021.73 2004.27 2044.25 2037.79
7701.81 2040.18 2018.85 2049.26 2061.01
7704.57 1994.64 2021.51 2089.53 2078.54
7707.33 2029.7 2024.3 2096.84 2086.51
7710.09 2048.57 1997.88 2073.17 2034.43
7712.85 1915.37 1995.16 1933.28 2003.57
7715.61 2021.53 1949.05 2004.27 1959.15
7718.37 1910.24 1976.74 1939.9 2008.1
7721.13 1998.45 1978.81 2080.13 2041.41
7723.89 2027.75 2006.03 2104.2 2067.91
7726.65 1991.89 2027.42 2019.41 2067.56
7729.4 2062.62 2025.69 2079.06 2036.3
7732.16 2022.55 2037.21 2010.44 2045.97
7734.92 2026.45 2014.49 2048.4 2018.81
7737.68 1994.49 1971.6 1997.59 1991.63
7740.44 1893.87 1945.65 1928.89 1966.35
7743.2 1948.61 1911.78 1972.56 1930.05
7745.95 1892.86 1957.06 1888.7 1956.69
7748.71 2029.73 1983.21 2008.82 1987.31
7751.47 2027.03 2014.65 2064.4 2042.44
7754.22 1987.18 2022.6 2054.11 2047.58
7756.98 2053.58 1995.39 2024.22 2005.74
7759.74 1945.4 2008.69 1938.9 1986.82
7762.49 2027.08 2007.7 1997.35 1993.06
7765.25 2050.6 2029.86 2042.93 2017.43
7768.01 2011.9 2003.9 2012.01 2007.09
7770.76 1949.19 1980.89 1966.34 1976.94
7773.52 1981.57 1955.57 1952.46 1942.65
7776.27 1935.95 1937.33 1909.16 1910.71
7779.03 1894.47 1921.04 1870.52 1885.42
7781.78 1932.71 1932.19 1876.58 1909.6
7784.54 1969.4 1955.65 1981.72 1911.19
7787.29 1964.85 1985.75 1875.28 1939.12
7790.05 2023.02 1972.2 1960.36 1910.99
7792.8 1928.72 1968.52 1897.33 1942.58
7795.55 1953.82 1911.47 1970.06 1896.1
7798.31 1851.86 1918.41 1820.91 1893.71
7801.06 1949.54 1937.9 1890.16 1883.65
7803.81 2012.31 1965.77 1939.87 1900.28
7806.57 1935.46 1977.47 1870.81 1908.05
7809.32 1984.64 1953.21 1913.48 1893.53
7812.07 1939.52 1936.65 1896.31 1882.94
7814.82 1885.79 1943.18 1839.03 1872.23
7817.58 2004.24 1917.41 1881.36 1832.08
7820.33 1862.19 1927.62 1775.84 1844.45
7823.08 1916.43 1902.14 1876.15 1832.19
7825.83 1927.79 1902.93 1844.59 1845.95
7828.58 1864.55 1879.11 1817.12 1817.46
7831.33 1844.99 1845.96 1790.69 1783.52
7834.09 1828.34 1861.37 1742.74 1786.88
7836.84 1910.78 1896.13 1827.21 1819.33
7839.59 1949.29 1909.82 1888.04 1839.26
7842.34 1869.41 1884.02 1802.54 1819.93
7845.09 1833.37 1856 1769.22 1771.61
7847.84 1865.21 1854.02 1743.09 1766.69
7850.59 1863.47 1878.82 1787.77 1785.43
7853.34 1907.77 1918.96 1825.44 1820.65
7856.09 1985.64 1920.71 1848.73 1803.33
7858.83 1868.72 1911.99 1735.81 1803.93
7861.58 1881.61 1874.16 1827.26 1786.57
7864.33 1872.14 1865.9 1796.64 1785.07
7867.08 1843.96 1818.08 1731.31 1713.8
7869.83 1738.14 1818.81 1613.46 1683.89
7872.58 1874.31 1811.23 1706.89 1670.73
7875.32 1821.22 1824.78 1691.84 1693.24
7878.07 1778.79 1800.85 1680.98 1677.61
7880.82 1802.54 1795.25 1660.02 1668.58
7883.57 1804.42 1797.64 1664.73 1654.91
7886.31 1785.97 1793.95 1639.97 1640.59
7889.06 1791.46 1769.84 1617.08 1625.71
7891.81 1732.09 1771.33 1620.07 1638.41
7894.55 1790.44 1771.78 1678.07 1646.33
7897.3 1792.81 1798.86 1640.86 1660.41
7900.05 1813.32 1810.32 1662.29 1656.68
7902.79 1824.84 1792.8 1666.89 1641.41
7905.54 1740.24 1815.39 1595.04 1664.53
7908.28 1881.08 1774.79 1731.67 1643.9
7911.03 1703.07 1760.03 1605 1615.57
7913.77 1695.95 1723.7 1510.03 1570.14
7916.52 1772.1 1690.38 1595.4 1529.56
7919.26 1603.09 1697.42 1483.26 1562.84
7922 1717.08 1687 1609.87 1552.6
7924.75 1740.82 1711.58 1564.67 1569.57
7927.49 1676.82 1708.96 1534.17 1534.73
7930.24 1709.24 1689.69 1505.35 1512.85
7932.98 1683 1686.93 1499.04 1509.02
7935.72 1668.55 1668.87 1522.69 1493.82
7938.47 1655.07 1673.02 1459.74 1506.73
7941.21 1695.45 1674.34 1537.75 1490.05
7943.95 1672.51 1671.73 1472.67 1498.74
7946.69 1647.22 1691.35 1485.79 1503.72
7949.43 1754.31 1723.42 1552.69 1529.98
7952.18 1768.73 1740.74 1551.45 1542.31
7954.92 1699.19 1739.36 1522.79 1546.87
7957.66 1750.15 1710.2 1566.35 1514.81
7960.4 1681.26 1727.82 1455.28 1518.22
7963.14 1752.05 1718.28 1533.03 1505.69
7965.88 1721.55 1726.5 1528.75 1531.47
7968.62 1705.91 1713.29 1532.61 1530.38
7971.36 1712.41 1703.02 1529.77 1525.94
7974.1 1690.73 1699.81 1515.43 1516.91
7976.84 1696.28 1691.34 1505.52 1503.09
7979.58 1687.02 1687.77 1488.33 1498.74
7982.32 1680.02 1673.99 1502.37 1488.08
7985.06 1654.93 1695.15 1473.53 1498.1
7987.8 1750.49 1693.37 1518.41 1476.89
7990.54 1674.7 1695.27 1438.73 1462.41
7993.28 1660.6 1649.14 1430.09 1429.25
7996.02 1612.12 1633.9 1418.94 1427.39
7998.76 1628.96 1595.39 1433.15 1398.85
8001.49 1545.08 1601.68 1344.45 1401.72
8004.23 1630.99 1598.58 1427.56 1397.34
8006.97 1619.67 1638.29 1420.01 1424.91
8009.71 1664.21 1664.95 1427.15 1450.38
8012.44 1710.99 1702.15 1503.99 1479.56
8015.18 1731.26 1664.39 1507.55 1460.49
8017.92 1550.9 1611.96 1369.93 1393.21
8020.65 1553.7 1580.35 1302.15 1366.4
8023.39 1636.46 1594.37 1427.12 1351.05
8026.13 1592.95 1609.94 1323.88 1396.2
8028.86 1600.4 1599.72 1437.59 1377.38
8031.6 1605.8 1578.43 1370.67 1375.15
8034.33 1529.09 1584.75 1317.19 1355.81
8037.07 1619.36 1572.73 1379.57 1340.86
8039.8 1569.73 1570.48 1325.82 1330.1
8042.54 1522.34 1546.13 1284.91 1308.39
8045.27 1546.33 1533.91 1314.44 1301.16
8048.01 1533.04 1556.48 1304.14 1323.78
8050.74 1590.06 1569.22 1352.75 1334.75
8053.47 1584.56 1583.89 1347.35 1338.94
8056.21 1577.05 1594.08 1316.73 1347.19
8058.94 1620.62 1581.81 1377.5 1339.02
8061.67 1547.75 1596.12 1322.83 1354.54
8064.41 1620 1588.69 1363.29 1343.68
8067.14 1598.33 1590.69 1344.91 1340.77
8069.87 1553.74 1581.68 1314.11 1335.66
8072.61 1592.96 1570.36 1347.95 1314.02
8075.34 1564.39 1568.16 1280 1307.42
8078.07 1547.14 1536.16 1294.3 1273.25
8080.8 1496.95 1507.75 1245.46 1255.16
8083.53 1479.15 1485.66 1225.73 1232.34
8086.26 1480.89 1493.01 1225.83 1243.98
8088.99 1518.99 1512.01 1280.4 1254.37
8091.73 1536.15 1513.76 1256.88 1254.3
8094.46 1486.14 1494.7 1225.62 1231.22
8097.19 1461.81 1491.69 1211.17 1231.49
8099.92 1527.12 1505.8 1257.68 1239.85
8102.65 1528.49 1529.5 1250.72 1253.3
8105.38 1532.88 1527.12 1251.5 1256.74
8108.11 1519.97 1506.37 1268.01 1237.88
8110.84 1466.25 1482.15 1194.12 1214.18
8113.56 1460.22 1479.43 1180.42 1195.41
8116.29 1511.8 1492.15 1211.69 1204.93
8119.02 1504.41 1488.91 1222.69 1207.99
8121.75 1450.5 1461.59 1189.59 1191.18
8124.48 1429.85 1449.63 1161.25 1183.11
8127.21 1468.55 1449.51 1198.51 1182.58
8129.93 1450.14 1422.14 1187.97 1156.9
8132.66 1347.74 1394.39 1084.23 1128.7
8135.39 1385.28 1349.8 1113.91 1087.41
8138.12 1316.38 1392.84 1064.08 1116.51
8140.84 1476.86 1374.41 1171.55 1111.49
8143.57 1330 1378.44 1098.85 1125.21
8146.3 1328.45 1330.37 1105.25 1086.6
8149.02 1332.66 1326.16 1055.7 1059.4
8151.75 1317.36 1323.89 1017.26 1052.98
8154.47 1321.66 1346.24 1085.98 1081.04
8157.2 1399.71 1325.42 1139.88 1075.8
8159.93 1254.9 1296.32 1001.54 1047.6
8162.65 1234.35 1251.96 1001.38 1010.33
8165.38 1266.62 1249.69 1028.07 1009.97
8168.1 1248.1 1254.2 1000.45 1002.48
8170.82 1247.9 1264.98 978.929 1001.35
8173.55 1298.95 1266.19 1024.68 1000.73
8176.27 1251.73 1253.11 998.597 994.02
8179 1208.65 1228.08 958.788 979.117
8181.72 1223.86 1245.01 979.967 987.274
8184.44 1302.53 1253.96 1023.07 1001.75
8187.17 1235.5 1264.84 1002.2 1007.76
8189.89 1256.48 1257.21 998 1003.91
8192.61 1279.64 1254.02 1011.51 1001.72
8195.33 1225.95 1253.66 995.657 998.378
8198.06 1255.39 1271.4 987.966 992.106
8200.78 1332.88 1295.33 992.697 996.796
8203.5 1297.72 1342.05 1009.72 1023.4
8206.22 1395.55 1362.31 1067.78 1064.12
8208.94 1393.65 1379.15 1114.84 1076.41
8211.67 1348.25 1341.17 1046.61 1049.31
8214.39 1281.62 1314.26 986.47 1021.93
8217.11 1312.91 1274.59 1032.7 988.794
8219.83 1229.22 1264.28 947.21 979.202
8222.55 1250.7 1231.87 957.694 949.297
8225.27 1215.67 1170.52 942.986 910.686
8227.99 1045.17 1120.2 831.377 868.259
8230.71 1099.77 1091.48 830.415 843.194
8233.43 1129.5 1158.18 867.79 879.714
8236.15 1245.28 1232.63 940.938 938.456
8238.86 1323.11 1290.04 1006.64 985.083
8241.58 1301.73 1324.68 1007.67 1011.84
8244.3 1349.19 1333.75 1021.21 1022.77
8247.02 1350.33 1363.56 1039.41 1040.09
8249.74 1391.14 1356.79 1059.64 1029.73
8252.46 1328.91 1340.93 990.125 1020.33
8255.17 1302.74 1292.71 1011.21 988.811
8257.89 1246.48 1279.09 965.098 991.817
8260.61 1288.07 1275.96 999.144 983.212
8263.32 1293.33 1324.32 985.393 1003.86
8266.04 1391.57 1340.97 1027.04 1008.64
8268.76 1338 1320.05 1013.5 994.056
8271.47 1230.57 1265.68 941.633 972.385
8274.19 1228.47 1211.4 962.02 924.555
8276.91 1175.18 1241.36 870.013 934.527
8279.62 1320.43 1261.98 971.548 941.542
8282.34 1290.33 1276.02 983.066 956.472
8285.05 1217.29 1234.57 914.803 943.1
8287.77 1196.1 1227.99 931.43 923.936
8290.48 1270.57 1239.37 925.575 931.937
8293.2 1251.43 1275.14 938.805 930.391
8295.91 1303.42 1300.02 926.792 980.22
8298.62 1345.21 1316.72 1075.06 999.312
8301.34 1301.53 1297.71 996.082 996.159
8304.05 1246.4 1280.19 917.332 954.85
8306.76 1292.65 1289.07 951.137 954.78
8309.48 1328.15 1296.17 995.872 972.009
8312.19 1267.72 1306.68 969.019 988.12
8314.9 1324.17 1289.7 999.47 973.363
8317.62 1277.2 1282.95 951.6 948.511
8320.33 1247.48 1253.6 894.464 917.915
8323.04 1236.11 1244.24 907.682 909.615
8325.75 1249.13 1245.99 926.698 914.924
8328.46 1252.74 1253.68 910.39 913.496
8331.17 1259.17 1252 903.4 908.761
8333.89 1244.08 1240.47 912.493 906.414
8336.6 1218.16 1238.86 903.349 911.532
8339.31 1254.33 1258.69 918.755 895.066
8342.02 1303.57 1255.19 863.094 881.215
8344.73 1207.67 1212.53 861.794 907.067
8347.44 1126.36 1169.82 996.314 921.501
8350.15 1175.43 1150.31 906.396 939.832
8352.86 1149.15 1146.49 916.787 920.18
8355.57 1114.9 1141.35 937.357 919.217
8358.27 1159.98 1152.86 903.506 901.285
8360.98 1183.68 1183.19 862.993 892.043
8363.69 1205.9 1227.11 909.629 907.439
8366.4 1291.77 1243.44 949.694 928.195
8369.11 1232.65 1244.31 925.262 931.247
8371.82 1208.52 1206.95 918.785 924.97
8374.52 1179.67 1190.16 930.863 927.41
8377.23 1182.29 1208.3 932.581 941.613
8379.94 1262.93 1212.53 961.394 924.809
8382.65 1192.37 1180.12 880.452 891.849
8385.35 1085.06 1128.8 833.701 861.134
8388.06 1108.97 1134.07 869.248 878.563
8390.77 1208.18 1179.93 932.741 908.157
8393.47 1222.64 1205.96 922.483 916.052
8396.18 1187.07 1194.16 892.93 897.614
8398.88 1172.76 1195.54 877.428 891.201
8401.59 1226.79 1191.78 903.246 878.281
8404.29 1175.8 1189.5 854.169 870.387
8407 1165.92 1189.74 853.747 881.624
8409.7 1227.51 1222.77 936.956 896.405
8412.41 1274.87 1235.57 898.513 903.404
8415.11 1204.34 1242.33 874.743 874.762
8417.82 1247.79 1197.97 851.028 872.258
8420.52 1141.78 1177.3 891.001 879.691
8423.22 1142.31 1199.02 897.043 901.892
8425.93 1312.96 1244.39 917.633 937.933
8428.63 1277.88 1256.63 999.123 937.777
8431.33 1179.04 1242.22 896.576 970.504
8434.03 1269.74 1213.69 1015.81 944.421
8436.74 1192.28 1205.07 920.874 926.509
8439.44 1153.17 1174.43 842.841 877.598
8442.14 1177.84 1163.56 869.08 868.449
8444.84 1159.67 1181.1 893.426 864.813
8447.54 1205.78 1189.55 831.934 860.815
8450.25 1203.2 1220.2 857.085 864.599
8452.95 1251.63 1217.98 904.778 858.608
8455.65 1199.12 1231.6 813.961 878.745
8458.35 1244.06 1251.86 917.496 875.948
8461.05 1312.4 1267.75 896.387 881.587
8463.75 1246.79 1245.03 830.876 837.141
8466.45 1175.91 1194.52 784.16 808.614
8469.15 1160.86 1165.85 810.804 819.828
8471.85 1160.76 1186.52 864.52 848.201
8474.55 1237.94 1200.17 869.279 869.957
8477.25 1201.81 1210.78 876.071 877.237
8479.94 1192.58 1195.71 886.36 869.324
8482.64 1192.74 1216.43 845.542 877.088
8485.34 1263.97 1234.36 899.362 870.392
8488.04 1246.37 1265.1 866.271 893.036
8490.74 1284.94 1231.23 913.476 871.824
8493.43 1162.37 1176.19 835.724 847.892
8496.13 1081.25 1087.33 794.477 781.66
8498.83 1018.35 1080.77 714.779 748.849
8501.53 1142.7 1106.67 737.292 742.776
8504.22 1158.96 1176.24 776.256 774.122
8506.92 1227.07 1199.84 808.818 826.936
8509.61 1213.5 1201.59 895.734 841.42
8512.31 1164.21 1164.39 819.71 813.712
8515.01 1115.46 1169.82 725.694 786.925
8517.7 1229.8 1179.2 815.372 787.017
8520.4 1192.35 1200.23 819.984 815.744
8523.09 1178.53 1203.66 811.878 830.536
8525.79 1240.11 1199.07 859.748 824.997
8528.48 1178.57 1209.04 803.365 818.906
8531.18 1208.43 1185.97 793.605 793.989
8533.87 1170.91 1139.21 784.998 774.46
8536.56 1038.3 1077.36 744.779 739.851
8539.26 1022.87 993.069 689.777 686.473
8541.95 918.035 960.489 624.861 637.174
8544.64 940.558 981.022 596.883 638.471
8547.34 1084.47 1043.62 693.669 688.202
8550.03 1105.83 1130.02 774.053 766.777
8552.72 1199.77 1169.84 832.609 805.604
8555.41 1203.93 1190.18 810.15 812.513
8558.11 1166.84 1195.84 794.779 801.01
8560.8 1216.76 1208.08 798.101 807.179
8563.49 1240.64 1208.39 828.656 808.575
8566.18 1167.76 1225.23 798.967 825.224
8568.87 1267.28 1224.81 848.049 819.308
8571.56 1239.38 1237.85 810.908 827.812
8574.25 1206.89 1224.68 824.478 812.585
8576.94 1227.77 1228.03 802.368 818.768
8579.63 1249.43 1233.35 829.458 825.223
8582.32 1222.84 1220.5 843.843 827.571
8585.01 1189.23 1218.08 809.412 816.512
8587.7 1242.17 1231.91 796.282 813.573
8590.39 1264.33 1251.61 835.025 822.028
8593.08 1248.34 1241.7 834.776 820.846
8595.77 1212.42 1237.87 792.738 809.208
8598.46 1252.84 1231.68 800.11 797.554
8601.15 1229.79 1222.45 799.815 785.676
8603.83 1184.71 1197.97 757.102 773.269
8606.52 1179.4 1190.51 762.891 777.588
8609.21 1207.43 1211.17 812.772 783.563
8611.9 1246.67 1229.44 775.024 802.702
8614.58 1234.23 1239.12 820.309 806.123
8617.27 1236.46 1245.44 823.037 813.485
8619.96 1265.62 1216.24 797.11 795.699
8622.64 1146.65 1236.68 766.95 801.519
8625.33 1297.76 1225.92 840.497 794.42
8628.01 1233.34 1252.55 775.812 802.643
8630.7 1226.53 1239.68 791.622 784.429
8633.39 1259.18 1231.33 785.852 774.105
8636.07 1208.27 1254.03 744.841 786.306
8638.76 1294.65 1258.39 828.223 805.494
8641.44 1272.25 1258.24 843.419 816.87
8644.13 1207.83 1230.84 778.968 821.496
8646.81 1212.44 1228.64 842.1 793.064
8649.49 1265.64 1244.9 758.124 803.947
8652.18 1256.62 1243.09 811.617 775.684
8654.86 1206.99 1208.02 757.31 786.87
8657.54 1160.46 1139.84 791.684 741.443
8660.23 1052.07 1074.23 675.334 686.875
8662.91 1010.14 1045.48 593.608 650.163
8665.59 1074.22 1086.65 681.546 649.238
8668.27 1175.57 1149.05 672.561 700.348
8670.96 1197.35 1183 746.936 717.979
8673.64 1176.08 1191.02 734.441 745.601
8676.32 1199.61 1210.03 755.427 751.316
8679 1254.39 1219.22 764.081 741.838
8681.68 1203.66 1225.34 706.005 737.176
8684.36 1217.97 1220.28 741.442 729.765
8687.04 1239.2 1227.87 741.846 728.166
8689.73 1226.43 1226.6 701.21 717.978
8692.41 1214.17 1233.62 710.878 708.784
8695.09 1260.25 1233.77 714.264 712.351
8697.77 1226.89 1267.69 711.91 724.511
8700.44 1315.94 1267.46 747.359 742.483
8703.12 1259.56 1281.52 768.18 746.853
8705.8 1269.05 1274.72 725.019 740.593
8708.48 1295.55 1297.88 728.58 741.679
8711.16 1329.05 1300.46 771.439 748.614
8713.84 1276.77 1290.56 745.824 745.353
8716.52 1265.86 1260.87 718.797 721.162
8719.19 1239.99 1261.15 698.864 712.497
8721.87 1277.6 1256.27 719.83 715.701
8724.55 1251.22 1255.78 728.408 730.621
8727.23 1238.53 1259.76 743.625 731.422
8729.9 1289.52 1239.28 722.233 736.106
8732.58 1189.8 1238.02 742.46 723.183
8735.26 1234.75 1233.76 704.858 718.613
8737.93 1276.73 1244.4 708.522 686.655
8740.61 1221.73 1280.22 646.585 696.441
8743.28 1342.2 1271.88 734.216 700.041
8745.96 1251.72 1285.24 719.322 719.341
8748.63 1261.8 1249.51 704.486 708.024
8751.31 1235.02 1247.81 700.264 714.088
8753.98 1246.6 1225.32 737.515 705.681
8756.66 1194.35 1226.46 679.264 705.826
8759.33 1238.43 1224.62 700.701 703.964
8762.01 1241.07 1284.8 731.929 703.86
8764.68 1374.88 1300.67 678.951 662.757
8767.35 1286.06 1308.43 577.391 644.761
8770.03 1264.34 1252.63 677.941 662.768
8772.7 1207.5 1239.09 732.971 723.774
8775.37 1245.41 1247.81 760.411 740.645
8778.05 1290.51 1257.38 728.551 731.65
8780.72 1236.22 1244.86 705.987 684.363
8783.39 1207.84 1212.36 618.551 661.914
8786.06 1193 1192.67 661.204 656.527
8788.73 1177.18 1184.81 689.827 674.842
8791.41 1184.24 1178.41 673.495 659.562
8794.08 1173.81 1198.69 615.364 639.28
8796.75 1238.01 1224.76 628.983 633.585
8799.42 1262.46 1263.94 656.408 652.529
8802.09 1291.36 1259.74 672.197 663.463
8804.76 1225.38 1239.04 661.784 652.235
8807.43 1200.37 1195.97 622.723 616.814
8810.1 1162.17 1208.15 565.936 609.41
8812.77 1261.9 1192.84 639.571 600.53
8815.44 1154.46 1215.42 596.082 622.562
8818.11 1229.89 1182.86 632.034 612.128
8820.78 1164.24 1207.44 608.269 633.206
8823.44 1228.19 1211.68 659.315 643.723
8826.11 1242.61 1238.18 663.586 633.613
8828.78 1243.75 1233.44 577.937 600.582
8831.45 1213.97 1212.39 560.222 597.694
8834.12 1179.46 1206.13 654.924 627.99
8836.78 1224.95 1215.26 668.824 672.161
8839.45 1241.37 1236.86 692.737 672.15
8842.12 1244.25 1223.26 654.89 672.299
8844.78 1184.16 1232.87 669.269 672.175
8847.45 1270.21 1244.64 692.367 672.106
8850.12 1279.54 1285.55 654.681 656.114
8852.78 1306.9 1285.43 621.293 640.198
8855.45 1269.84 1265.18 644.618 621.819
8858.11 1218.79 1239.81 599.545 618.777
8860.78 1230.8 1200.94 612.167 613.237
8863.44 1153.22 1201.37 627.997 613.973
8866.11 1220.08 1193.04 601.755 585.785
8868.77 1205.81 1205.73 527.602 553.053
8871.44 1191.28 1195.97 529.802 533.9
8874.1 1190.83 1202.17 544.297 547.357
8876.76 1224.41 1212.52 567.971 582.107
8879.43 1222.34 1190.65 634.053 608.156
8882.09 1125.19 1212.04 622.445 629.943
8884.75 1288.59 1216.55 633.33 581.349
8887.42 1235.86 1235.48 488.271 520.874
8890.08 1182 1199.04 441.022 466.938
8892.74 1179.25 1157.89 471.52 475.858
8895.4 1112.42 1156.39 515.031 539.284
8898.06 1177.51 1175.86 631.3 613.676
8900.72 1237.65 1222.47 694.698 655.342
8903.39 1252.23 1232.06 640.028 645.666
8906.05 1206.29 1201.28 602.273 572.025
8908.71 1145.32 1203.1 473.774 549.067
8911.37 1257.7 1228.67 571.155 555.704
8914.03 1282.98 1265.4 622.183 618.693
8916.69 1255.52 1254.8 662.741 634.644
8919.35 1225.88 1230.94 619.007 590.929
8922.01 1211.41 1209.28 491.037 534.337
8924.67 1190.56 1186.92 492.965 480.457
8927.33 1158.79 1151.71 457.369 496.033
8929.99 1105.77 1156.59 537.766 544.292
8932.64 1205.2 1156.12 637.741 587.215
8935.3 1157.39 1166.89 586.139 582.532
8937.96 1138.08 1153.04 523.718 568.69
8940.62 1163.65 1159.71 596.212 566.229
8943.28 1177.39 1145.69 578.757 547.508
8945.93 1096.04 1136.37 467.556 506.104
8948.59 1135.68 1107.16 472 462.778
8951.25 1089.77 1095.92 448.777 473.547
8953.9 1062.31 1086.12 499.864 496.692
8956.56 1106.28 1106.8 541.436 495.727
8959.22 1151.8 1117.38 445.88 473.547
8961.87 1094.07 1079.35 433.325 409.813
8964.53 992.174 1016.52 350.236 414.814
8967.18 963.317 982.581 460.883 422.579
8969.84 992.252 968.655 456.618 461.817
8972.49 950.396 992.82 467.951 466.393
8975.15 1035.81 1020.16 474.611 465.691
8977.8 1074.27 1042.01 454.51 441.435
8980.46 1015.96 1045.18 395.184 430.767
8983.11 1045.3 1028.28 442.607 427.274
8985.76 1023.57 1014.28 444.03 439.577
8988.42 973.966 978.807 432.094 417.252
8991.07 938.888 924.849 375.631 379.484
8993.72 861.693 899.858 330.727 358.172
8996.38 898.992 892.695 368.157 372.864
8999.03 917.401 915.962 419.707 403.745
9001.68 931.495 919.116 423.371 377.435
9004.33 908.454 921.514 289.228 363.023
9006.98 924.592 908.251 376.47 339.412
9009.64 891.708 910.678 352.538 398.812
9012.29 915.733 892.253 467.427 391.475
9014.94 869.318 906.217 354.461 410.455
9017.59 933.599 908.657 409.478 392.5
9020.24 923.053 922.764 413.561 400.773
9022.89 911.64 941.52 379.28 380.006
9025.54 989.869 953.926 347.178 366.936
9028.19 960.268 963.316 374.35 363.227
9030.84 939.812 963.375 368.154 368.797
9033.49 990.046 989.837 363.888 375.212
9036.14 1039.65 1031.62 393.593 404.971
9038.79 1065.18 1060.65 457.43 417.593
9041.43 1077.13 1072.74 401.756 422.666
9044.08 1075.9 1055.14 408.813 418.96
9046.73 1012.4 1042.95 446.312 408.86
9049.38 1040.56 1033.94 371.455 395.256
9052.03 1048.86 1044.38 368.002 379.304
9054.67 1043.71 1036.83 398.455 375.171
9057.32 1017.92 1040.31 359.057 399.153
9059.97 1059.3 1026.59 439.946 408.726
9062.61 1002.54 1008.21 427.176 430.066
9065.26 962.798 969.07 423.076 412.506
9067.91 941.869 893.132 387.267 378.571
9070.55 774.73 752.376 325.37 309.6
9073.2 540.528 438.419 216.164 180.511
