wavelength spectrum_sum 3smoothed_sum spectrum_optimal 3smoothed_optimal
3505.38 62.4022 50.3859 60.8265 50.6433
3508.29 88.7554 87.4507 91.1032 81.576
3511.21 111.194 103.948 92.7983 97.022
3514.12 111.894 108.944 107.164 102.083
3517.04 103.742 105.168 106.287 98.4027
3519.95 99.8683 100.843 81.757 94.3357
3522.87 98.9182 101.761 94.9636 90.8281
3525.79 106.496 105.126 95.7638 90.2044
3528.7 109.965 111.587 79.8857 93.5597
3531.62 118.299 120.487 105.03 102.761
3534.53 133.198 131.338 123.367 116.042
3537.45 142.518 148.417 119.73 128.548
3540.36 169.536 151.6 142.547 126.948
3543.28 142.747 148.472 118.568 129.029
3546.2 133.134 132.144 125.971 119.585
3549.11 120.55 129.424 114.216 119.227
3552.03 134.588 135.253 117.495 123.766
3554.94 150.62 138.618 139.587 124.969
3557.86 130.647 132.692 117.824 119.864
3560.78 116.808 111.325 102.179 98.861
3563.69 86.5199 107.415 76.5795 94.7592
3566.61 118.917 110.155 105.519 96.6409
3569.52 125.029 113.6 107.824 95.8831
3572.44 96.8534 108.329 74.3063 89.3212
3575.35 103.105 106.683 85.8333 88.5299
3578.27 120.092 103.339 105.45 91.2601
3581.19 86.8207 111.032 82.497 98.5016
3584.1 126.184 120.68 107.558 105.424
3587.02 149.034 148.798 126.216 130.46
3589.93 171.175 160.603 157.604 143.824
3592.85 161.6 166.865 147.651 150.78
3595.77 167.82 163.601 147.084 142.845
3598.68 161.384 172.614 133.799 145.818
3601.6 188.637 162.344 156.571 135.333
3604.51 137.01 168.169 115.628 143.083
3607.43 178.861 156.467 157.052 135.002
3610.35 153.53 164.159 132.325 144.026
3613.26 160.087 157.96 142.7 133.134
3616.18 160.262 164.748 124.375 141.744
3619.09 173.894 188.016 158.158 159.535
3622.01 229.891 206.243 196.071 178.327
3624.92 214.943 205.751 180.753 178.115
3627.84 172.42 200.296 157.521 171.677
3630.76 213.523 200.197 176.758 178.724
3633.67 214.648 215.42 201.892 192.068
3636.59 218.09 217.367 197.554 190.632
3639.5 219.364 215.509 172.449 185.655
3642.42 209.073 214.817 186.963 181.508
3645.34 216.015 217.672 185.111 192.12
3648.25 227.927 232.035 204.285 203.941
3651.17 252.164 238.356 222.428 214.871
3654.08 234.978 251.684 217.9 232.003
3657 267.909 254.061 255.681 234.81
3659.92 259.295 263.973 230.849 245.603
3662.83 264.714 266.225 250.277 245.69
3665.75 274.667 270.181 255.943 248.515
3668.66 271.162 275.578 239.325 250.733
3671.58 280.906 275.283 256.931 247.826
3674.5 273.782 273.71 247.22 246.111
3677.41 266.443 252.814 234.182 228.634
3680.33 218.215 247.098 204.501 224.605
3683.24 256.636 250.059 235.132 228.734
3686.16 275.324 268.426 246.569 237.127
3689.08 273.318 278.578 229.679 245.788
3691.99 287.092 284.003 261.116 250.254
3694.91 291.601 287.319 259.966 254.184
3697.82 283.265 273.284 241.469 238.739
3700.74 244.987 266.463 214.783 232.39
3703.65 271.137 277.096 240.917 241.907
3706.57 315.164 303.308 270.022 262.215
3709.49 323.624 304.594 275.706 266.002
3712.4 274.993 284.775 252.278 246.238
3715.32 255.707 269.776 210.73 239.457
3718.23 278.628 269.586 255.364 236.25
3721.15 274.424 289.949 242.656 269.25
3724.07 316.794 278.818 309.732 255.63
3726.98 245.236 276.555 214.503 248.878
3729.9 267.634 256.229 222.4 223.065
3732.81 255.815 262.914 232.294 229.312
3735.73 265.292 262.399 233.241 236.662
3738.64 266.089 255.147 244.45 224.534
3741.56 234.059 238.909 195.91 211.696
3744.48 216.579 228.058 194.729 201.072
3747.39 233.537 247.545 212.576 224.806
3750.31 292.519 276.474 267.112 255.483
3753.22 303.366 307.262 286.763 278.249
3756.14 325.9 308.276 280.872 277.421
3759.06 295.562 326.995 264.627 291.091
3761.97 359.524 342.319 327.773 310.293
3764.89 371.872 382.939 338.478 347.094
3767.8 417.423 399.429 375.032 360.964
3770.72 408.993 415.84 369.38 378.171
3773.63 421.103 413.882 390.099 382.878
3776.55 411.549 423.257 389.154 404.527
3779.47 437.12 423.936 434.327 401.465
3782.38 423.139 424.228 380.914 395.562
3785.3 412.424 417.235 371.444 382.649
3788.21 416.142 411.996 395.588 383.156
3791.13 407.422 402.549 382.437 379.482
3794.04 384.085 395.386 360.42 367.181
3796.96 394.652 394.045 358.687 362.963
3799.88 403.399 402.417 369.782 367.451
3802.79 409.199 402.637 373.885 370.153
3805.71 395.314 411.947 366.793 375.23
3808.62 431.329 392.124 385.012 357.971
3811.54 349.728 372.346 322.107 341.959
3814.45 335.982 336.216 318.757 313.051
3817.37 322.937 311.771 298.289 292.975
3820.29 276.393 290.676 261.879 272.477
3823.2 272.698 271.495 257.264 259.247
3826.12 265.394 264.648 258.598 255.213
3829.03 255.851 260.556 249.777 251.789
3831.95 260.424 262.836 246.991 257.015
3834.86 272.234 276.815 274.276 256.302
3837.78 297.787 306.734 247.639 286.791
3840.7 350.182 353.364 338.459 318.867
3843.61 412.123 377.063 370.503 356.826
3846.53 368.882 400.837 361.516 375.517
3849.44 421.504 379.656 394.532 365.549
3852.36 348.58 380.651 340.598 357.923
3855.27 371.867 359.048 338.638 339.013
3858.19 356.696 373.934 337.803 349.371
3861.1 393.24 378.123 371.673 353.647
3864.02 384.432 384.495 351.464 357.887
3866.93 375.814 375.35 350.523 342.992
3869.85 365.803 375.544 326.99 343.907
3872.77 385.015 379.791 354.209 355.203
3875.68 388.554 388.071 384.409 367.531
3878.6 390.644 387.865 363.974 369.783
3881.51 384.398 406.453 360.965 375.791
3884.43 444.319 445.122 402.435 413.658
3887.34 506.65 486.123 477.575 454.51
3890.26 507.399 516.238 483.521 479.233
3893.17 534.666 514.09 476.603 474.191
3896.09 500.204 506.668 462.45 459.022
3899 485.134 495.733 438.014 448.973
3901.92 501.86 520.643 446.454 464.03
3904.83 574.936 553.611 507.622 498.944
3907.75 584.038 601.778 542.757 551.13
3910.66 646.362 617.959 603.011 568.82
3913.58 623.476 607.963 560.693 560.942
3916.5 554.052 576.049 519.12 528.323
3919.41 550.619 512.301 505.156 479.676
3922.33 432.234 459.189 414.751 425.621
3925.24 394.715 385.73 356.956 352.706
3928.16 330.24 336.703 286.412 302.044
3931.07 285.153 324.9 262.764 293.46
3933.99 359.308 334.379 331.204 315.161
3936.9 358.675 384.175 351.515 365.856
3939.82 434.54 410.136 414.85 403.786
3942.73 437.193 458.737 444.993 450.889
3945.65 504.477 494.082 492.825 491.699
3948.56 540.574 541.122 537.279 539.381
3951.48 578.315 557.593 588.04 556.21
3954.39 553.89 545.279 543.31 543.625
3957.31 503.632 501.505 499.525 498.985
3960.22 446.993 437.535 454.12 434.278
3963.14 361.982 385.281 349.189 384.266
3966.05 346.869 354.118 349.489 349.105
3968.97 353.504 396.627 348.638 393.89
3971.88 489.506 457.064 483.544 455.862
3974.8 528.182 526.981 535.406 525.185
3977.71 563.254 580.165 556.606 585.731
3980.63 649.058 636.136 665.182 638.841
3983.54 696.095 721.195 694.734 727.899
3986.46 818.434 781.595 823.782 785.196
3989.37 830.258 825.591 837.072 835.947
3992.28 828.08 823.983 846.988 827.838
3995.2 813.61 839.954 799.454 847.412
3998.11 878.171 862.43 895.794 863.906
4001.03 895.508 882.339 896.469 893.136
4003.94 873.338 900.037 887.146 908.988
4006.86 931.264 904.565 943.35 915.992
4009.77 909.094 937.533 917.481 950.732
4012.69 972.243 954.261 991.364 966.537
4015.6 981.446 970.493 990.766 987.046
4018.52 957.79 981.029 979.008 1000.8
4021.43 1003.85 970.606 1032.63 990.945
4024.35 950.177 956.399 961.2 981.508
4027.26 915.167 919.977 950.697 940.593
4030.17 894.586 925.085 909.882 945.94
4033.09 965.501 933.246 977.239 943.335
4036 939.65 949.398 942.885 963.145
4038.92 943.043 927.337 969.31 943.055
4041.83 899.317 910.4 916.972 926.435
4044.75 888.84 911.657 893.023 922.863
4047.66 946.813 934.953 958.595 945.127
4050.58 969.206 955.117 983.764 967.513
4053.49 949.332 968.444 960.18 974.373
4056.4 986.795 957.058 979.175 963.102
4059.32 935.047 951.5 949.953 953.088
4062.23 932.658 938.214 930.135 949.49
4065.15 946.937 956.129 968.382 962.698
4068.06 988.792 963.331 989.577 962.816
4070.98 954.263 967.81 930.488 965.404
4073.89 960.375 962.011 976.146 967.478
4076.8 971.396 1004.77 995.799 1020.79
4079.72 1082.54 1064.68 1090.42 1079.05
4082.63 1140.11 1118.44 1150.92 1133.6
4085.55 1132.68 1158.77 1159.45 1171.64
4088.46 1203.53 1164.82 1204.54 1184.84
4091.37 1158.25 1116.25 1190.54 1131.13
4094.29 986.955 1058.7 998.321 1069.95
4097.2 1030.88 1015.09 1021 1030.5
4100.12 1027.42 1050.58 1072.17 1059.21
4103.03 1093.44 1087.99 1084.46 1097.05
4105.94 1143.11 1119.51 1134.51 1113.87
4108.86 1121.97 1147.47 1122.65 1136.08
4111.77 1177.34 1169.96 1151.08 1168.47
4114.68 1210.56 1211.74 1231.67 1205.43
4117.6 1247.31 1233.09 1233.55 1240.83
4120.51 1241.38 1258.07 1257.28 1256.7
4123.43 1285.51 1257.38 1279.26 1257.65
4126.34 1245.25 1226.95 1236.41 1223.87
4129.25 1150.08 1189.21 1155.93 1189.65
4132.17 1172.31 1196.9 1176.63 1196.32
4135.08 1268.32 1256.86 1256.4 1251.28
4137.99 1329.97 1265.2 1320.8 1263.52
4140.91 1197.32 1232.74 1213.37 1245.44
4143.82 1170.94 1215.62 1202.14 1232.89
4146.73 1278.59 1247.17 1283.15 1263.3
4149.65 1291.99 1271.06 1304.62 1284.57
4152.56 1242.6 1270.23 1265.95 1285.01
4155.47 1276.09 1276.82 1284.46 1296.85
4158.39 1311.75 1294.83 1340.14 1323.39
4161.3 1296.65 1315.73 1345.57 1346.72
4164.21 1338.78 1313.06 1354.46 1345.26
4167.13 1303.74 1303.31 1335.75 1327.94
4170.04 1267.4 1253.42 1293.61 1284.36
4172.95 1189.12 1253.19 1223.72 1287.27
4175.87 1303.04 1262.67 1344.47 1295.29
4178.78 1295.85 1274.66 1317.68 1299.99
4181.69 1225.08 1268.69 1237.81 1298.4
4184.61 1285.14 1264.33 1339.7 1301.55
4187.52 1282.78 1299.41 1327.13 1337.81
4190.43 1330.3 1292.04 1346.6 1313.99
4193.35 1263.05 1278.11 1268.23 1296.18
4196.26 1240.98 1265.87 1273.71 1282.44
4199.17 1293.57 1269.14 1305.39 1287.76
4202.08 1272.88 1299.95 1284.17 1317.35
4205 1333.4 1331.5 1362.49 1363.01
4207.91 1388.22 1377.27 1442.37 1415.73
4210.82 1410.17 1393.69 1442.34 1446.52
4213.74 1382.67 1380.92 1454.84 1422.05
4216.65 1349.92 1361.54 1368.98 1403.35
4219.56 1352.04 1309.53 1386.22 1345.92
4222.47 1226.62 1271.7 1282.55 1314.49
4225.39 1236.44 1274.87 1274.71 1323.92
4228.3 1361.55 1316.9 1414.49 1364.56
4231.21 1352.7 1348.38 1404.48 1397.7
4234.12 1330.89 1356.63 1374.12 1403.06
4237.04 1386.3 1377.84 1430.58 1412.42
4239.95 1416.34 1398.99 1432.56 1433.61
4242.86 1394.33 1418.6 1437.7 1441.79
4245.77 1445.14 1392.15 1455.12 1438.02
4248.69 1336.98 1376.63 1421.23 1427.54
4251.6 1347.79 1377.43 1406.26 1435.96
4254.51 1447.52 1396.83 1480.4 1447.09
4257.42 1395.18 1403.63 1454.6 1462.18
4260.33 1368.19 1408.08 1451.53 1471.51
4263.25 1460.88 1400.53 1508.39 1459.26
4266.16 1372.53 1397.69 1417.85 1433.17
4269.07 1359.65 1372.82 1373.27 1407.32
4271.98 1386.28 1371.3 1430.85 1402.56
4274.9 1367.98 1400.37 1403.55 1441.72
4277.81 1446.85 1404.33 1490.75 1447.82
4280.72 1398.15 1426.51 1449.17 1471.61
4283.63 1434.54 1407.26 1474.89 1447.82
4286.54 1389.1 1393.77 1419.39 1427.77
4289.45 1357.68 1354.35 1389.04 1386.72
4292.37 1316.26 1318.05 1351.73 1346.4
4295.28 1280.19 1243.93 1298.44 1273.25
4298.19 1135.34 1201.78 1169.58 1227.46
4301.1 1189.82 1138.22 1214.36 1161.05
4304.01 1089.5 1119.85 1099.22 1152.68
4306.92 1080.21 1133.24 1144.46 1159.98
4309.84 1230.01 1248.34 1236.26 1283.4
4312.75 1434.79 1392.84 1469.46 1415.25
4315.66 1513.71 1503.46 1540.02 1533.78
4318.57 1561.87 1500.51 1591.85 1543.19
4321.48 1425.94 1475.76 1497.71 1526.9
4324.39 1439.48 1506.24 1491.15 1551.71
4327.31 1653.31 1595.03 1666.27 1628
4330.22 1692.31 1665.17 1726.58 1685.14
4333.13 1649.89 1641.6 1662.59 1660.1
4336.04 1582.6 1612.4 1591.13 1624.6
4338.95 1604.71 1610.65 1620.08 1631.64
4341.86 1644.65 1668.28 1683.7 1702.71
4344.77 1755.48 1699.22 1804.36 1743.04
4347.68 1697.53 1722.68 1741.05 1773.98
4350.59 1715.04 1722.69 1776.53 1780.35
4353.51 1755.49 1723.2 1823.46 1783.86
4356.42 1699.06 1739.55 1751.58 1790.63
4359.33 1764.09 1782.86 1796.84 1829.97
4362.24 1885.42 1823.25 1941.48 1880.01
4365.15 1820.23 1839.45 1901.71 1904.78
4368.06 1812.68 1832.66 1871.14 1898.13
4370.97 1865.07 1821.75 1921.54 1875.29
4373.88 1787.49 1810.97 1833.18 1849.06
4376.79 1780.35 1749.72 1792.47 1789.87
4379.7 1681.32 1686.2 1743.97 1731.11
4382.61 1596.94 1664.55 1656.9 1726.52
4385.52 1715.41 1652.65 1778.7 1711.82
4388.43 1645.61 1700.24 1699.86 1759.28
4391.34 1739.72 1730.6 1799.29 1787.87
4394.25 1806.46 1781.92 1864.47 1830.24
4397.17 1799.59 1783.5 1826.98 1839
4400.08 1744.45 1768.43 1825.55 1821.31
4402.99 1761.25 1773.91 1811.39 1843.64
4405.9 1816.02 1822.53 1893.98 1876.91
4408.81 1890.32 1839.94 1925.37 1902.89
4411.72 1813.49 1882.04 1889.33 1941.82
4414.63 1942.31 1899.85 2010.76 1980.66
4417.54 1943.76 1962.28 2041.88 2036.49
4420.45 2000.78 1991.6 2056.82 2070.77
4423.36 2030.25 2016.34 2113.62 2090.16
4426.27 2017.99 1997.43 2100.04 2073.84
4429.18 1944.05 1994.26 2007.87 2077.19
4432.09 2020.72 2015.44 2123.66 2102.02
4435 2081.56 2040.55 2174.54 2137.24
4437.91 2019.38 2054.68 2113.53 2140.12
4440.82 2063.11 2047.89 2132.3 2137.88
4443.73 2061.2 2083.47 2167.8 2174.69
4446.63 2126.12 2107.87 2223.97 2203.57
4449.54 2136.3 2094.56 2218.92 2180.29
4452.45 2021.27 2037.29 2097.99 2120.14
4455.36 1954.32 1989.22 2043.51 2069.43
4458.27 1992.08 2009.6 2066.78 2090.95
4461.18 2082.4 2054.73 2162.55 2131.98
4464.09 2089.73 2091.85 2166.6 2170.4
4467 2103.43 2124.42 2182.04 2202.38
4469.91 2180.11 2151.76 2258.48 2239.01
4472.82 2171.74 2220.83 2276.51 2313.37
4475.73 2310.65 2224.62 2405.13 2321.18
4478.64 2191.48 2236.35 2281.9 2338.21
4481.55 2206.93 2218.86 2327.59 2323.41
4484.46 2258.16 2214.4 2360.73 2336.53
4487.36 2178.09 2229.17 2321.27 2341.21
4490.27 2251.25 2269.43 2341.63 2374.57
4493.18 2378.94 2319.22 2460.83 2404.33
4496.09 2327.47 2322.28 2410.52 2424.34
4499 2260.44 2356.17 2401.67 2465.74
4501.91 2480.6 2413.42 2585.04 2544.93
4504.82 2499.22 2517.25 2648.1 2641.12
4507.73 2571.93 2520.05 2690.24 2643.97
4510.63 2489.01 2497.3 2593.59 2610.74
4513.54 2430.96 2438.33 2548.38 2547.85
4516.45 2395.03 2448.49 2501.59 2555.66
4519.36 2519.47 2429.75 2617.02 2532.83
4522.27 2374.75 2372.88 2479.89 2468.19
4525.18 2224.44 2254.73 2307.66 2359.46
4528.08 2165.01 2219.97 2290.85 2324.57
4530.99 2270.47 2243.99 2375.22 2373.19
4533.9 2296.5 2298.77 2453.5 2427.01
4536.81 2329.36 2319.93 2452.3 2439.62
4539.72 2333.94 2352.14 2413.05 2454.39
4542.62 2393.13 2337.76 2497.83 2454.33
4545.53 2286.21 2376.42 2452.12 2490.03
4548.44 2449.9 2389.35 2520.14 2502.24
4551.35 2431.93 2443.73 2534.46 2542.96
4554.26 2449.35 2455.58 2574.29 2570.44
4557.16 2485.44 2500.57 2602.56 2622.3
4560.07 2566.93 2566.61 2690.04 2687.31
4562.98 2647.45 2605.27 2769.34 2728.45
4565.89 2601.43 2597.65 2725.97 2730.1
4568.79 2544.08 2579.04 2695.01 2713.5
4571.7 2591.62 2618.68 2719.53 2769.24
4574.61 2720.35 2636.54 2893.18 2783.77
4577.52 2597.66 2579.89 2738.61 2731.57
4580.42 2421.66 2489.74 2562.92 2620.88
4583.33 2449.89 2509.94 2561.11 2631.28
4586.24 2658.27 2573.67 2769.81 2688.76
4589.15 2612.85 2583.68 2735.35 2705.38
4592.05 2479.93 2575.03 2610.96 2704.28
4594.96 2632.31 2556.12 2766.51 2696
4597.87 2556.12 2628.52 2710.52 2770.12
4600.77 2697.13 2633.09 2833.31 2768.55
4603.68 2646.04 2692.37 2761.82 2829.59
4606.59 2733.95 2713.53 2893.63 2851.81
4609.49 2760.61 2765.3 2899.99 2917.06
4612.4 2801.35 2770.2 2957.57 2919.56
4615.31 2748.64 2728.97 2901.13 2899.38
4618.21 2636.92 2717.95 2839.44 2886.18
4621.12 2768.3 2748.45 2917.96 2912.49
4624.03 2840.12 2824.81 2980.07 2975.94
4626.93 2866 2838.63 3029.78 2978.86
4629.84 2809.77 2798.03 2926.74 2937.98
4632.75 2718.33 2772.66 2857.42 2905.59
4635.65 2789.89 2758.25 2932.63 2900.78
4638.56 2766.52 2752.46 2912.29 2907.18
4641.46 2700.98 2714.01 2876.61 2896.22
4644.37 2674.54 2674.18 2899.77 2854.14
4647.28 2647.02 2657.93 2786.03 2857.45
4650.18 2652.23 2674.5 2886.54 2856.41
4653.09 2724.26 2713.52 2896.67 2921
4655.99 2764.09 2758.89 2979.78 2941.04
4658.9 2788.33 2763.71 2946.68 2952.19
4661.81 2738.71 2724.95 2930.12 2895.69
4664.71 2647.8 2722.61 2810.29 2892.44
4667.62 2781.32 2693.07 2936.92 2864.68
4670.52 2650.11 2713.33 2846.84 2884.35
4673.43 2708.56 2713.84 2869.3 2894
4676.33 2782.84 2760.75 2965.88 2924.06
4679.24 2790.84 2795.45 2937 2971.49
4682.15 2812.66 2782.37 3011.61 2949.74
4685.05 2743.62 2749.89 2900.61 2933.72
4687.96 2693.39 2758.59 2888.93 2944.39
4690.86 2838.75 2773.81 3043.61 2975.06
4693.77 2789.29 2845.83 2992.64 3030.61
4696.67 2909.46 2793.45 3055.58 2977.58
4699.58 2681.6 2776.8 2884.51 2961.89
4702.48 2739.35 2714.96 2945.58 2908.12
4705.39 2723.93 2739.01 2894.25 2930.45
4708.29 2753.75 2777.54 2951.51 2980.58
4711.2 2854.94 2853.17 3095.99 3077.35
4714.1 2950.82 2899.16 3184.54 3134.15
4717 2891.71 2939.73 3121.93 3166.51
4719.91 2976.67 2959.23 3193.05 3185.84
4722.81 3009.31 2992.56 3242.54 3202.81
4725.72 2991.68 2921.83 3172.84 3132.61
4728.62 2764.49 2874.29 2982.45 3063.3
4731.53 2866.69 2819.55 3034.6 3007.79
4734.43 2827.47 2876.95 3006.33 3055.51
4737.34 2936.7 2921.67 3125.59 3107.12
4740.24 3000.84 2962.16 3189.46 3162.26
4743.14 2948.93 3021.46 3171.73 3237.52
4746.05 3114.61 3027.64 3351.37 3264.76
4748.95 3019.39 3031.84 3271.19 3262.87
4751.86 2961.52 2992.37 3166.05 3219.86
4754.76 2996.19 2979.14 3222.35 3190.79
4757.66 2979.7 2987.14 3183.97 3194.48
4760.57 2985.53 2967.86 3177.11 3175.29
4763.47 2938.36 2938.81 3164.79 3157.99
4766.37 2892.53 2962.05 3132.06 3188.12
4769.28 3055.26 2986.96 3267.5 3217.85
4772.18 3013.08 3071.31 3254 3298.2
4775.08 3145.59 3098.31 3373.1 3316.86
4777.99 3136.27 3096.37 3323.49 3310.94
4780.89 3007.24 3073.22 3236.21 3308.97
4783.79 3076.15 3052.51 3367.21 3307.45
4786.7 3074.14 3065.37 3318.91 3323.23
4789.6 3045.83 3061.37 3283.58 3296.79
4792.5 3064.14 3072.02 3287.88 3301.76
4795.41 3106.08 3097.54 3333.82 3319.81
4798.31 3122.4 3099.93 3337.71 3330.71
4801.21 3071.31 3079.4 3320.6 3312.8
4804.11 3044.5 3099.88 3280.08 3344.29
4807.02 3183.83 3119.87 3432.19 3356.38
4809.92 3131.27 3163.95 3356.87 3400.53
4812.82 3176.76 3151.46 3412.53 3387.03
4815.72 3146.37 3164.73 3391.69 3412
4818.63 3171.07 3158.36 3431.78 3421.59
4821.53 3157.63 3170.59 3441.29 3429.47
4824.43 3183.07 3132.79 3415.33 3387.31
4827.33 3057.67 3118.08 3305.31 3366.3
4830.24 3113.52 3103.84 3378.28 3360.16
4833.14 3140.33 3137.84 3396.9 3398.17
4836.04 3159.68 3111.92 3419.33 3389.07
4838.94 3035.75 3090.54 3350.96 3364.63
4841.84 3076.19 3067.73 3323.6 3332.08
4844.75 3091.26 3087.64 3321.69 3333.07
4847.65 3095.45 3061.06 3353.92 3322.11
4850.55 2996.47 2991.5 3290.72 3257.02
4853.45 2882.59 2894.43 3126.44 3144.62
4856.35 2804.22 2755.73 3016.69 2978.7
4859.25 2580.39 2706.57 2792.97 2916.11
4862.16 2735.1 2698.42 2938.65 2916.34
4865.06 2779.77 2725.24 3017.4 2940.09
4867.96 2660.86 2769.54 2864.22 2996.39
4870.86 2867.98 2810.45 3107.55 3034.48
4873.76 2902.5 2891.51 3131.68 3134.81
4876.66 2904.04 2907.43 3165.21 3162.02
4879.56 2915.76 2915.29 3189.18 3185.52
4882.46 2926.06 2931.57 3202.18 3192.66
4885.36 2952.9 2931.21 3186.64 3185.37
4888.26 2914.67 2935.96 3167.31 3183.91
4891.17 2940.31 2993.96 3197.79 3269.16
4894.07 3126.92 3078.42 3442.38 3361.7
4896.97 3168.03 3202.4 3444.93 3489.52
4899.87 3312.24 3206.01 3581.24 3486.59
4902.77 3137.75 3190.23 3433.6 3466.03
4905.67 3120.71 3129.14 3383.25 3409.34
4908.57 3128.98 3118.51 3411.18 3409.37
4911.47 3105.85 3142.04 3433.68 3433.81
4914.37 3191.31 3106.54 3456.59 3386.28
4917.27 3022.47 3044.66 3268.58 3304.72
4920.17 2920.2 2998.8 3188.98 3265.42
4923.07 3053.72 3038.61 3338.7 3322.11
4925.97 3141.9 3149.06 3438.67 3457.68
4928.87 3251.56 3227.08 3595.67 3536.29
4931.77 3287.78 3236.24 3574.54 3552.37
4934.67 3169.39 3187.48 3486.91 3484.76
4937.57 3105.27 3183.12 3392.84 3490.18
4940.47 3274.69 3246.23 3590.8 3560.14
4943.37 3358.73 3350.36 3696.78 3674.24
4946.26 3417.66 3366.03 3735.15 3691.8
4949.16 3321.69 3322.82 3643.47 3637.3
4952.06 3229.1 3251.3 3533.27 3554.75
4954.96 3203.11 3232.59 3487.51 3543.33
4957.86 3265.56 3239.68 3609.2 3561.78
4960.76 3250.36 3295.78 3588.63 3632.12
4963.66 3371.43 3327.12 3698.53 3661.06
4966.56 3359.57 3372.47 3696.04 3705.44
4969.46 3386.39 3343.62 3721.75 3686.74
4972.36 3284.89 3399.38 3642.42 3744.2
4975.25 3526.87 3379.88 3868.43 3727.93
4978.15 3327.88 3341.45 3672.94 3675.64
4981.05 3169.6 3226.83 3485.56 3548.62
4983.95 3183 3210.66 3487.36 3537.11
4986.85 3279.36 3268.06 3638.39 3607.32
4989.75 3341.81 3353.81 3696.2 3713.44
4992.64 3440.25 3380.53 3805.72 3743.35
4995.54 3359.53 3394.65 3728.13 3763.27
4998.44 3384.16 3353.36 3755.96 3722.55
5001.34 3316.38 3282.04 3683.56 3635.46
5004.24 3145.59 3224.8 3466.87 3587.78
5007.13 3212.43 3191 3612.9 3547.25
5010.03 3214.97 3205.39 3561.97 3558
5012.93 3188.75 3200.52 3499.14 3553.51
5015.83 3197.84 3191.24 3599.43 3564.65
5018.72 3187.13 3227.76 3595.37 3629.68
5021.62 3298.32 3247.96 3694.25 3627.81
5024.52 3258.43 3315.55 3593.8 3686.75
5027.42 3389.91 3356.98 3772.18 3747.89
5030.31 3422.59 3386.58 3877.67 3790.33
5033.21 3347.23 3354.46 3721.13 3764.17
5036.11 3293.55 3294.63 3693.71 3667.34
5039 3243.11 3281.1 3587.2 3661.82
5041.9 3306.66 3302.59 3704.56 3662.32
5044.8 3358.02 3355.32 3695.2 3711.88
5047.69 3401.28 3393.78 3735.89 3768.66
5050.59 3422.05 3445.66 3874.89 3841.41
5053.49 3513.64 3487.4 3913.46 3899.35
5056.38 3526.5 3565.75 3909.7 3968.96
5059.28 3657.11 3597.14 4083.71 4009.27
5062.18 3607.8 3572.94 4034.41 3986.37
5065.07 3453.92 3573.91 3841 3984.16
5067.97 3660.01 3550.87 4077.08 3962.82
5070.86 3538.67 3561.84 3970.39 3999.4
5073.76 3486.84 3489.58 3950.74 3918.46
5076.66 3443.23 3473.29 3834.24 3895.56
5079.55 3489.79 3428.92 3901.72 3827.44
5082.45 3353.75 3403.62 3746.38 3828.01
5085.34 3367.33 3408.92 3835.93 3853.64
5088.24 3505.7 3470.14 3978.62 3931.25
5091.13 3537.4 3531.42 3979.19 3974.46
5094.03 3551.16 3507.45 3965.56 3940.04
5096.92 3433.79 3514.65 3875.38 3950.64
5099.82 3559.02 3487.34 4010.99 3947.64
5102.71 3469.22 3558.17 3956.56 4018.54
5105.61 3646.28 3555.88 4088.07 4016.4
5108.5 3552.14 3573.59 4004.58 4032.34
5111.4 3522.36 3599.4 4004.38 4063.63
5114.29 3723.7 3597.73 4181.94 4042.52
5117.19 3547.15 3637.89 3941.25 4066.27
5120.08 3642.84 3582.53 4075.61 3992.59
5122.98 3557.6 3560.68 3960.91 3969.81
5125.87 3481.6 3522.01 3872.9 3931.71
5128.77 3526.84 3488.41 3961.31 3910.6
5131.66 3456.8 3515.79 3897.57 3971.07
5134.56 3563.75 3480.3 4054.32 3947.22
5137.45 3420.36 3472.56 3889.78 3932.39
5140.34 3433.57 3400.63 3853.07 3836.06
5143.24 3347.95 3452.62 3765.34 3898.41
5146.13 3576.33 3493.6 4076.81 3957.47
5149.03 3556.52 3570.04 4030.25 4043.19
5151.92 3577.27 3584.9 4022.52 4038.45
5154.81 3620.92 3591.53 4062.57 4061.44
5157.71 3576.4 3591.36 4099.24 4068.91
5160.6 3576.77 3490.4 4044.92 3953.5
5163.49 3318.04 3313.02 3716.33 3723.07
5166.39 3044.25 3103.48 3407.95 3492.35
5169.28 2948.14 3001.02 3352.77 3384.47
5172.17 3010.66 3070.31 3392.7 3474.75
5175.07 3252.13 3169.96 3678.79 3589.93
5177.96 3247.08 3191.51 3698.3 3603.2
5180.85 3075.31 3132.84 3432.51 3535.21
5183.74 3076.15 3129.06 3474.83 3529.54
5186.64 3235.71 3204.07 3681.27 3628.3
5189.53 3300.34 3313.34 3728.81 3757.36
5192.42 3403.97 3387.62 3862.01 3861.06
5195.31 3458.56 3441.28 3992.36 3933.64
5198.21 3461.3 3495.35 3946.57 4019.78
5201.1 3566.2 3501.3 4120.41 4008.9
5203.99 3476.42 3480.57 3959.71 3984.45
5206.88 3399.09 3470.77 3873.22 3980.35
5209.78 3536.79 3478.66 4108.11 4021.12
5212.67 3500.11 3519.53 4082.01 4055.59
5215.56 3521.68 3538.57 3976.64 4077
5218.45 3593.92 3598.63 4172.36 4117.11
5221.34 3680.3 3598.23 4202.32 4128.11
5224.23 3520.46 3545.97 4009.66 4075.61
5227.13 3437.17 3481.21 4014.86 4006.43
5230.02 3485.99 3508.62 3994.77 4040.8
5232.91 3602.71 3603.04 4112.75 4120.65
5235.8 3720.42 3674.01 4254.43 4202.48
5238.69 3698.91 3754.31 4240.26 4287.2
5241.58 3843.61 3737.63 4366.91 4290.24
5244.47 3670.36 3756.97 4263.56 4324.18
5247.36 3756.94 3743 4342.07 4316.67
5250.25 3801.7 3767.45 4344.38 4325.87
5253.15 3743.69 3779.07 4291.18 4342.37
5256.04 3791.8 3796.95 4391.55 4362.51
5258.93 3855.35 3754.57 4404.8 4314.58
5261.82 3616.55 3624.69 4147.4 4138.02
5264.71 3402.16 3424.47 3861.87 3903.86
5267.6 3254.69 3319.03 3702.3 3801.8
5270.49 3300.24 3335.14 3841.22 3840.84
5273.38 3450.5 3417.11 3979 3958.16
5276.27 3500.61 3542.32 4054.26 4090.05
5279.16 3675.85 3619.9 4236.89 4154.77
5282.05 3683.25 3691.32 4173.14 4239.63
5284.94 3714.85 3730.56 4308.85 4290.74
5287.83 3793.57 3802.7 4390.22 4394.92
5290.72 3899.68 3853.76 4485.68 4449.87
5293.61 3868.02 3856.4 4473.71 4441.94
5296.49 3801.49 3830.32 4366.42 4419.49
5299.38 3821.45 3853.13 4418.35 4441.24
5302.27 3936.45 3890.15 4538.94 4495.1
5305.16 3912.56 3957.21 4528 4571.37
5308.05 4022.63 4020.82 4647.17 4644.76
5310.94 4127.28 4044.75 4759.11 4667.71
5313.83 3984.34 4052.16 4596.86 4668.77
5316.72 4044.86 3939.93 4650.34 4545.11
5319.61 3790.58 3893.54 4388.12 4480.59
5322.49 3845.18 3790.8 4403.31 4364.22
5325.38 3736.62 3731.12 4301.24 4284.84
5328.27 3611.55 3721.22 4149.97 4284.7
5331.16 3815.5 3776.28 4402.9 4345.61
5334.05 3901.79 3830.16 4483.97 4409.19
5336.94 3773.18 3848.99 4340.7 4417.54
5339.82 3872.01 3819.82 4427.94 4394.62
5342.71 3814.27 3870.88 4415.23 4459.61
5345.6 3926.36 3904.96 4535.66 4519.39
5348.49 3974.25 3967.16 4607.28 4587.24
5351.37 4000.87 4017.43 4618.78 4660.41
5354.26 4077.17 4043.21 4755.16 4690.63
5357.15 4051.6 4053.68 4697.96 4689.12
5360.04 4032.27 4006.27 4614.25 4627.02
5362.92 3934.93 3945.35 4568.85 4551.92
5365.81 3868.84 3890.33 4472.66 4515.88
5368.7 3867.23 3893.19 4506.13 4511.3
5371.58 3943.5 3908.95 4555.12 4544.54
5374.47 3916.12 3943.81 4572.37 4571.24
5377.36 3971.81 3982.25 4586.23 4600.04
5380.24 4058.84 3998.04 4641.53 4584.34
5383.13 3963.47 4042.1 4525.26 4655.41
5386.02 4103.99 3995.83 4799.43 4635.78
5388.9 3920.03 3970.96 4582.65 4619.25
5391.79 3888.86 3886.91 4475.67 4516.95
5394.68 3851.82 3850.88 4492.53 4441.44
5397.56 3811.95 3835.75 4356.11 4411.99
5400.45 3843.49 3777.95 4387.33 4328.54
5403.33 3678.41 3743.79 4242.17 4312.98
5406.22 3709.48 3728.83 4309.43 4313.41
5409.1 3798.59 3787.36 4388.62 4369.58
5411.99 3854.01 3863.99 4410.7 4450.34
5414.88 3939.38 3898.54 4551.7 4502.58
5417.76 3902.22 3916.99 4545.35 4534.69
5420.65 3909.37 3890.2 4507.03 4528.25
5423.53 3859.02 3923.26 4532.38 4551.19
5426.42 4001.4 3877.03 4614.17 4509.99
5429.3 3770.66 3896.05 4383.43 4498.89
5432.19 3916.07 3861.76 4499.07 4505.59
5435.07 3898.55 3965.58 4634.28 4647.04
5437.95 4082.1 4007.12 4807.77 4707.28
5440.84 4040.69 4033.17 4679.78 4685.42
5443.72 3976.73 3990.75 4568.7 4604.32
5446.61 3954.81 3864.09 4564.49 4571.57
5449.49 3660.72 3773.76 4581.52 4613.57
5452.38 3705.75 3680.35 4694.69 4653.36
5455.26 3674.59 3719.09 4683.87 4749.92
5458.14 3776.94 3768.61 4871.2 4816.6
5461.03 3854.29 3830.28 4894.72 4891.53
5463.91 3859.59 3865.25 4908.67 4916.83
5466.8 3881.87 3855.76 4947.1 4922.32
5469.68 3825.83 3802.85 4911.2 4867.98
5472.56 3700.85 3729.09 4745.63 4765.34
5475.45 3660.6 3707.93 4639.18 4715.74
5478.33 3762.33 3709.63 4762.42 4693.54
5481.21 3705.95 3755 4679.01 4763.71
5484.1 3796.73 3738.19 4849.69 4770.17
5486.98 3711.89 3809.18 4781.8 4856.93
5489.86 3918.92 3813.07 4939.29 4862.13
5492.74 3808.39 3872.56 4865.3 4897.93
5495.63 3890.38 3811.04 4889.19 4836.85
5498.51 3734.35 3819.77 4756.05 4838.88
5501.39 3834.59 3812.21 4871.42 4865.44
5504.27 3867.7 3846.95 4968.85 4900.45
5507.16 3838.56 3798.01 4861.1 4834.15
5510.04 3687.76 3780.99 4672.52 4782.26
5512.92 3816.66 3775.5 4813.17 4773.01
5515.8 3822.09 3839.45 4833.35 4840.16
5518.68 3879.6 3863.96 4873.97 4877.88
5521.57 3890.19 3861.11 4926.31 4874.28
5524.45 3813.54 3849.78 4822.56 4870.13
5527.33 3845.61 3788.01 4861.52 4816.25
5530.21 3704.9 3790.77 4764.66 4855.65
5533.09 3821.81 3821.27 4940.76 4892.65
5535.97 3937.09 3889.33 4972.52 4939.38
5538.85 3909.09 3935.74 4904.86 4964.99
5541.73 3961.03 3928.22 5017.59 4954.12
5544.61 3914.53 3909.36 4939.91 4970.95
5547.5 3852.52 3903.63 4955.35 4954.34
5550.38 3943.84 3915.74 4967.75 4970.68
5553.26 3950.85 3947.05 4988.92 4984.25
5556.14 3946.46 3967.87 4996.07 5022.21
5559.02 4006.31 3935.58 5081.63 4990.34
5561.9 3853.96 3890.74 4893.31 4953.58
5564.78 3811.96 3833.52 4885.8 4893.21
5567.66 3834.63 3822.29 4900.52 4867.81
5570.54 3820.28 3861.65 4817.12 4898.05
5573.42 3930.03 3742.91 4976.52 4874.76
5576.3 3478.43 3606.18 4830.64 4885.93
5579.18 3410.08 3500.44 4850.63 4883.53
5582.06 3612.82 3531.29 4969.33 4795.35
5584.94 3570.97 3671.59 4566.08 4784.69
5587.81 3830.99 3739.36 4818.67 4765.17
5590.69 3816.11 3794.04 4910.77 4825.55
5593.57 3735.03 3809.35 4747.23 4841
5596.45 3876.9 3795.21 4865.02 4782.86
5599.33 3773.7 3898.55 4736.35 4901.94
5602.21 4045.04 3949.01 5104.44 4987.73
5605.09 4028.29 3998.29 5122.41 5086.98
5607.97 3921.54 3968.7 5034.1 5062.17
5610.85 3956.28 3911.84 5030 4982.84
5613.72 3857.69 3837.07 4884.41 4871.12
5616.6 3697.23 3811.14 4698.95 4836.62
5619.48 3878.51 3810.04 4926.51 4860.88
5622.36 3854.39 3907.98 4957.18 4964.53
5625.24 3991.04 3877.49 5009.9 4932.12
5628.11 3787.04 3902.33 4829.28 4939.14
5630.99 3928.9 3894.12 4978.24 4938.13
5633.87 3966.41 3936.68 5006.87 5003.14
5636.75 3914.72 3915.45 5024.3 4976.22
5639.62 3865.21 3900.23 4897.5 4965.59
5642.5 3920.74 3917.85 4974.98 4968.21
5645.38 3967.59 3960.89 5032.15 5018.34
5648.25 3994.35 3959.49 5047.89 5026.23
5651.13 3916.54 3948.8 4998.64 5019.04
5654.01 3935.5 3930.01 5010.58 4999.11
5656.88 3937.98 3927.3 4988.1 4982.74
5659.76 3908.44 3888.14 4949.56 4956.92
5662.64 3818 3891.17 4933.1 4967.59
5665.51 3947.08 3933.2 5020.12 5016.11
5668.39 4034.51 3987.85 5095.1 5052.96
5671.27 3981.97 3988.69 5043.67 5051.55
5674.14 3949.59 4021.71 5015.88 5104.76
5677.02 4133.58 4039.43 5254.74 5126.8
5679.89 4035.13 4053.03 5109.78 5134.74
5682.77 3990.37 3977.49 5039.69 5023.13
5685.65 3906.98 3958.03 4919.91 4996.45
5688.52 3976.74 3954.66 5029.73 4981.04
5691.4 3980.24 3995.36 4993.47 5045.01
5694.27 4029.08 4000.37 5111.82 5053.31
5697.15 3991.78 3998.19 5054.63 5063.39
5700.02 3973.72 3915.33 5023.71 4996.58
5702.9 3780.48 3886.36 4911.39 4964.85
5705.77 3904.88 3842.89 4959.44 4902.92
5708.65 3843.3 3849.59 4837.95 4871.67
5711.52 3800.6 3868.57 4817.63 4908.56
5714.39 3961.8 3894.04 5070.1 4972.35
5717.27 3919.72 3960.02 5029.33 5052.03
5720.14 3998.55 3990.86 5056.67 5073
5723.02 4054.32 4021.57 5133.02 5129.13
5725.89 4011.83 4068.66 5197.7 5201.34
5728.76 4139.83 4055.45 5273.31 5196.06
5731.64 4014.7 4069.35 5117.17 5176.06
5734.51 4053.51 4051.89 5137.7 5164.4
5737.39 4087.45 4056.71 5238.34 5162.06
5740.26 4029.17 4062.55 5110.13 5171.33
5743.13 4071.03 4014.67 5165.53 5101.84
5746.01 3943.81 4001.37 5029.87 5080.02
5748.88 3989.27 3963.06 5044.67 5038.63
5751.75 3956.12 3976.75 5041.36 5047.84
5754.62 3984.87 3954.94 5057.48 5036.33
5757.5 3923.84 4006.26 5010.15 5091.16
5760.37 4110.07 4025.4 5205.84 5111
5763.24 4042.28 4056.94 5117.02 5140.47
5766.11 4018.46 4056.94 5098.54 5155.97
5768.99 4110.09 4089.37 5252.36 5203.3
5771.86 4139.55 4064.29 5258.99 5199.25
5774.73 3943.22 4003.57 5086.4 5098.35
5777.6 3927.95 3916.47 4949.68 4973.53
5780.47 3878.24 3865.13 4884.52 4896.28
5783.35 3789.19 3835.44 4854.65 4881.61
5786.22 3838.88 3857.84 4905.65 4926.67
5789.09 3945.45 3911.3 5019.73 4990.92
5791.96 3949.56 3962.62 5047.39 5044.42
5794.83 3992.86 3955.86 5066.14 5054.95
5797.7 3925.15 3998.89 5051.31 5107.18
5800.57 4078.66 4019.76 5204.08 5126.42
5803.44 4055.47 4091.3 5123.86 5184.83
5806.31 4139.78 4108.44 5226.54 5185.17
5809.19 4130.08 4141.46 5205.12 5233.98
5812.06 4154.52 4119.15 5270.27 5210.61
5814.93 4072.87 4126.98 5156.46 5232.35
5817.8 4153.56 4134.75 5270.33 5248.81
5820.67 4177.82 4202.53 5319.66 5340.83
5823.54 4276.21 4211.81 5432.5 5358.49
5826.41 4181.4 4235.87 5323.31 5375.13
5829.28 4250.01 4197.28 5369.59 5339.28
5832.15 4160.44 4164.9 5324.93 5290.35
5835.02 4084.26 4165.99 5176.53 5296.12
5837.88 4253.26 4196.27 5386.91 5316.75
5840.75 4251.27 4227.15 5386.8 5353.15
5843.62 4176.92 4195.48 5285.74 5308.63
5846.49 4158.26 4150.63 5253.36 5281.5
5849.36 4116.72 4072.65 5305.4 5207.84
5852.23 3942.97 4046.5 5064.76 5184.28
5855.1 4079.81 4006.28 5182.68 5109.55
5857.97 3996.07 4006.32 5081.21 5086.4
5860.84 3943.09 4034.62 4995.31 5105.99
5863.7 4164.71 4056.16 5241.46 5124.98
5866.57 4060.67 4170.39 5138.17 5275.91
5869.44 4285.78 4209.54 5448.11 5329.34
5872.31 4282.17 4200.8 5401.74 5340.04
5875.18 4034.45 4116 5170.26 5254.57
5878.04 4031.38 4066.24 5191.7 5199.6
5880.91 4132.9 4094.6 5236.84 5222.6
5883.78 4119.5 4017.81 5239.25 5092.29
5886.65 3801.02 3692.72 4800.76 4764.36
5889.51 3157.64 3453.08 4253.07 4450.3
5892.38 3400.59 3292.49 4297.07 4334.3
5895.25 3319.23 3477.68 4452.75 4486.15
5898.11 3713.23 3656.75 4708.62 4701.69
5900.98 3937.79 3853.53 4943.69 4914.21
5903.85 3909.58 3954.49 5090.3 5041.91
5906.71 4016.1 3999.16 5091.74 5112.29
5909.58 4071.8 4042.29 5154.84 5129.71
5912.45 4038.96 4095.38 5142.56 5199.38
5915.31 4175.38 4098.81 5300.74 5201.88
5918.18 4082.07 4103.91 5162.33 5208.95
5921.04 4054.27 4075.78 5163.78 5169.72
5923.91 4090.98 4141.24 5183.03 5245.05
5926.78 4278.47 4167.48 5388.32 5270.29
5929.64 4132.98 4153.11 5239.52 5253.78
5932.51 4047.9 4119.47 5133.49 5204.31
5935.37 4177.53 4136.47 5239.91 5226.01
5938.24 4183.99 4158.31 5304.63 5261.09
5941.1 4113.42 4139.53 5238.73 5266.4
5943.97 4121.19 4133.7 5255.84 5261.87
5946.83 4166.49 4095.7 5291.05 5193.13
5949.7 3999.42 4077.27 5032.49 5141.19
5952.56 4065.89 4046.33 5100.03 5132.2
5955.42 4073.68 4108.06 5264.06 5218.49
5958.29 4184.61 4124.45 5291.37 5256.36
5961.15 4115.05 4178.26 5213.65 5273.26
5964.02 4235.13 4162.94 5314.78 5296.08
5966.88 4138.63 4202.17 5359.8 5337.02
5969.74 4232.74 4126.38 5336.49 5257.04
5972.61 4007.77 4136.03 5074.82 5227.18
5975.47 4167.57 4098.06 5270.24 5167.98
5978.34 4118.84 4096.67 5158.89 5174.51
5981.2 4003.6 4042.98 5094.38 5106.99
5984.06 4006.5 3987.94 5067.69 5068.08
5986.92 3953.72 4014.33 5042.16 5090.07
5989.79 4082.77 4088.01 5160.35 5191.7
5992.65 4227.54 4126.48 5372.59 5228.09
5995.51 4069.14 4158.29 5151.32 5265.11
5998.38 4178.18 4129.62 5271.43 5206.71
6001.24 4141.54 4177.19 5197.37 5271.05
6004.1 4211.85 4153.65 5344.34 5244.46
6006.96 4107.54 4117.35 5191.68 5212.94
6009.82 4032.67 4079.24 5102.79 5153.47
6012.69 4097.5 4039.21 5165.94 5111.34
6015.55 3987.44 4025.75 5065.28 5109
6018.41 3992.32 3981.32 5095.76 5083.38
6021.27 3964.2 3963.19 5089.08 5074.01
6024.13 3933.05 4010.55 5037.19 5126.4
6026.99 4134.41 4053.59 5252.92 5163.69
6029.85 4093.3 4116.77 5200.94 5219.54
6032.72 4122.6 4088.16 5204.76 5177.53
6035.58 4048.59 4095.16 5126.88 5177.58
6038.44 4114.28 4129.23 5201.11 5227.64
6041.3 4224.8 4155.78 5354.94 5291.43
6044.16 4128.25 4189.89 5318.23 5328.3
6047.02 4216.61 4151.31 5311.73 5297.71
6049.88 4109.08 4188.08 5263.18 5306.26
6052.74 4238.56 4179.77 5343.86 5293.61
6055.6 4191.67 4156.63 5273.79 5240.31
6058.46 4039.67 4129.11 5103.26 5204.71
6061.32 4156 4130.8 5237.08 5213.42
6064.18 4196.72 4139.82 5299.91 5259.19
6067.04 4066.74 4146.41 5240.57 5275.22
6069.9 4175.76 4145.38 5285.18 5276.45
6072.75 4193.63 4181.01 5303.61 5286.99
6075.61 4173.64 4190.61 5272.18 5293.72
6078.47 4204.55 4152.98 5305.37 5240.87
6081.33 4080.73 4102.55 5145.07 5196.81
6084.19 4022.37 4082.44 5140 5167.08
6087.05 4144.22 4064.1 5216.16 5146.75
6089.91 4025.7 4089.69 5084.08 5155.61
6092.76 4099.15 4083.28 5166.6 5145.67
6095.62 4124.99 4119.01 5186.33 5188.59
6098.48 4132.9 4123.61 5212.83 5202.81
6101.34 4112.94 4091.12 5209.27 5173.66
6104.2 4027.52 4059.6 5098.88 5140.41
6107.05 4038.35 4069.42 5113.08 5152.97
6109.91 4142.39 4106.94 5246.95 5186.07
6112.77 4140.07 4116.12 5198.19 5194.69
6115.63 4065.9 4074.55 5138.93 5139.55
6118.48 4017.7 4039.3 5081.53 5098.7
6121.34 4034.29 3996.91 5075.64 5064.3
6124.2 3938.73 3996.39 5035.73 5058.4
6127.05 4016.14 4032.31 5063.83 5122.11
6129.91 4142.06 4068.63 5266.77 5157.67
6132.77 4047.69 4042.51 5142.41 5155.19
6135.62 3937.78 3968.08 5056.39 5076.9
6138.48 3918.78 3982.65 5031.9 5081.54
6141.33 4091.38 4038.57 5156.35 5129.71
6144.19 4105.54 4083.76 5200.89 5160.45
6147.04 4054.36 4067.77 5124.13 5157.33
6149.9 4043.41 4007.59 5146.98 5091.64
6152.76 3924.99 3989.84 5003.82 5058.95
6155.61 4001.12 3916.46 5026.05 4953.25
6158.47 3823.28 3846.3 4829.88 4868.26
6161.32 3714.5 3815.15 4748.85 4832.57
6164.18 3907.68 3812.01 4918.98 4813.73
6167.03 3813.85 3871.62 4773.35 4867.04
6169.89 3893.34 3857.05 4908.78 4872
6172.74 3863.97 3905.92 4933.86 4950.61
6175.59 3960.47 3982.88 5009.19 5039.74
6178.45 4124.2 4076.67 5176.16 5131.83
6181.3 4145.34 4105.27 5210.15 5160.75
6184.16 4046.26 4096.94 5095.92 5148.8
6187.01 4099.23 4029.5 5140.32 5088.39
6189.86 3943.01 3996.21 5028.93 5072.27
6192.72 3946.38 3968 5047.55 5041.88
6195.57 4014.6 4003.65 5049.15 5088.98
6198.42 4049.96 4062.18 5170.24 5126.99
6201.28 4121.96 4086.43 5161.58 5157.22
6204.13 4087.37 4092.98 5139.83 5136.2
6206.98 4069.6 4051.38 5107.19 5091.38
6209.83 3997.17 4024.93 5027.13 5055.42
6212.69 4008.03 4023.23 5031.93 5061.05
6215.54 4064.48 4007.74 5124.08 5039.82
6218.39 3950.7 4027.01 4963.45 5064.61
6221.24 4065.85 4031.54 5106.31 5070.22
6224.1 4078.07 4009.57 5140.9 5082.19
6226.95 3884.77 3988.95 4999.35 5051.95
6229.8 4004 3964.74 5015.6 5053.43
6232.65 4005.44 4021.2 5145.34 5087.19
6235.5 4054.14 4023.08 5100.63 5104.57
6238.35 4009.65 3947.04 5067.75 4972.14
6241.2 3777.32 3919.77 4748.05 4938.25
6244.06 3972.33 3899.48 4998.94 4904
6246.91 3948.8 3955.65 4965.01 4974.83
6249.76 3945.83 3947.83 4960.53 4950.42
6252.61 3948.85 3930.43 4925.71 4924.22
6255.46 3896.61 3906.04 4886.43 4884.56
6258.31 3872.66 3877.97 4841.53 4859.57
6261.16 3864.65 3892.97 4850.74 4872.4
6264.01 3941.61 3944.93 4924.93 4974.16
6266.86 4028.54 3987.83 5146.82 5026.75
6269.71 3993.34 3969.86 5008.48 5042.29
6272.56 3887.72 3935.25 4971.55 4958.33
6275.41 3924.68 3854.64 4894.94 4852.26
6278.26 3751.52 3815.99 4690.28 4777.18
6281.11 3771.77 3796.79 4746.32 4752.06
6283.95 3867.1 3844.73 4819.59 4814.69
6286.8 3895.34 3923.78 4878.17 4892.32
6289.65 4008.9 3940.42 4979.2 4915.81
6292.5 3917.01 3870.4 4890.04 4904.57
6295.35 3685.29 3755.39 4844.45 4843.47
6298.2 3663.89 3731.81 4795.91 4812.32
6301.05 3846.26 3759.32 4796.6 4789.65
6303.89 3767.82 3836.85 4776.43 4814.43
6306.74 3896.45 3868.39 4870.27 4848.97
6309.59 3940.89 3867.91 4900.23 4826.92
6312.44 3766.38 3834.6 4710.27 4786.65
6315.28 3796.52 3812.67 4749.45 4783.63
6318.13 3875.12 3859.96 4891.18 4848.87
6320.98 3908.25 3895.28 4905.97 4891.66
6323.83 3902.46 3915.79 4877.82 4900.14
6326.67 3936.65 3917.88 4916.62 4929.82
6329.52 3914.54 3916.21 4995.04 4923.14
6332.37 3897.43 3887.85 4857.77 4885.38
6335.21 3851.57 3866.62 4803.34 4820.23
6338.06 3850.87 3852.32 4799.59 4806.98
6340.91 3854.51 3879.66 4818.01 4841.6
6343.75 3933.61 3885.67 4907.19 4880.62
6346.6 3868.89 3890.57 4916.66 4895.48
6349.44 3869.21 3877.63 4862.59 4876.31
6352.29 3894.8 3871.31 4849.69 4877.22
6355.13 3849.93 3855.42 4919.39 4841.32
6357.98 3821.52 3859.34 4754.87 4839.27
6360.82 3906.57 3930.98 4843.56 4875.21
6363.67 4064.84 3984.64 5027.2 4939.86
6366.51 3982.51 3986.12 4948.83 4951.54
6369.36 3911.01 3948.32 4878.59 4906.71
6372.2 3951.44 3967.71 4892.71 4923.03
6375.05 4040.67 3989.81 4997.79 4932.77
6377.89 3977.31 3994.57 4907.81 4940.24
6380.74 3965.72 3952.32 4915.11 4890.9
6383.58 3913.93 3915.77 4849.79 4882.49
6386.42 3867.66 3907.21 4882.59 4874.68
6389.27 3940.04 3883.49 4891.68 4833.05
6392.11 3842.76 3905.18 4724.88 4853.83
6394.95 3932.72 3860.14 4944.93 4790.1
6397.8 3804.92 3867.23 4700.48 4808.44
6400.64 3864.05 3863.14 4779.92 4782.01
6403.48 3920.44 3875.45 4865.64 4800.59
6406.33 3841.88 3860.98 4756.21 4791.63
6409.17 3820.63 3839.01 4753.05 4782.93
6412.01 3854.53 3833.19 4839.54 4797.68
6414.85 3824.42 3843.69 4800.45 4813.25
6417.7 3852.11 3825.94 4799.78 4762.66
6420.54 3801.28 3863.4 4687.76 4775.96
6423.38 3936.79 3911.17 4840.34 4809.44
6426.22 3995.44 3972.68 4900.23 4885.48
6429.06 3985.8 3945.47 4915.88 4867.23
6431.91 3855.17 3930.64 4785.58 4855.11
6434.75 3950.95 3876.73 4863.88 4789.67
6437.59 3824.06 3843.62 4719.54 4736.42
6440.43 3755.84 3830.2 4625.83 4728.79
6443.27 3910.71 3833.15 4840.99 4723.83
6446.11 3832.92 3880.08 4704.65 4787.55
6448.95 3896.61 3829.71 4817.01 4734.94
6451.79 3759.6 3831.32 4683.15 4747.37
6454.63 3837.75 3809.57 4741.96 4718.06
6457.47 3831.37 3838.6 4729.05 4744.71
6460.31 3846.69 3810.6 4763.1 4710.36
6463.15 3753.75 3839.13 4638.92 4746.22
6465.99 3916.96 3813.92 4836.63 4717.35
6468.83 3771.05 3845.87 4676.49 4737.52
6471.67 3849.59 3836.64 4699.43 4713.81
6474.51 3889.26 3854.31 4765.52 4722.76
6477.35 3824.09 3857.64 4703.35 4734.45
6480.19 3859.56 3849.93 4734.49 4730.72
6483.03 3866.14 3900.07 4754.34 4791.83
6485.87 3974.5 3830.9 4886.65 4728.7
6488.7 3652.05 3753.93 4545.1 4642.76
6491.54 3635.24 3603.77 4496.54 4491.07
6494.38 3524.01 3588.23 4431.56 4460.48
6497.22 3605.43 3668.22 4453.34 4548.83
6500.06 3875.23 3777.98 4761.57 4663.53
6502.89 3853.27 3862.52 4775.67 4755.62
6505.73 3859.07 3838.73 4729.61 4756.21
6508.57 3803.85 3832.28 4763.35 4730.83
6511.41 3833.91 3820.64 4699.54 4712.88
6514.24 3824.17 3834.91 4675.75 4720.59
6517.08 3846.65 3830.39 4786.48 4718.8
6519.92 3820.33 3832.67 4694.16 4729.81
6522.75 3831.02 3821.11 4708.8 4696.15
6525.59 3811.98 3834.08 4685.49 4712.02
6528.43 3859.23 3836.66 4741.77 4710.42
6531.26 3838.76 3819.64 4703.99 4676.68
6534.1 3760.93 3843.09 4584.27 4698.15
6536.93 3929.58 3735.96 4806.2 4699.1
6539.77 3517.36 3642.82 4706.84 4718.87
6542.61 3481.51 3489.93 4643.58 4653.22
6545.44 3470.9 3461.98 4609.25 4638.37
6548.28 3433.51 3423.3 4662.27 4587.38
6551.11 3365.49 3379.11 4490.63 4544.95
6553.95 3338.34 3313.02 4481.96 4434.83
6556.78 3235.23 3162.06 4331.89 4256.42
6559.62 2912.61 2983.43 3955.41 4008.06
6562.45 2802.44 2902.36 3736.87 3910.73
6565.28 2992.03 2998.63 4039.9 4005.32
6568.12 3201.42 3197.42 4239.19 4243.52
6570.95 3398.81 3353.97 4451.48 4422.52
6573.79 3461.68 3447.4 4576.88 4532.54
6576.62 3481.73 3487.5 4569.25 4593.15
6579.45 3519.09 3507.32 4633.31 4608.05
6582.29 3521.15 3487.93 4621.59 4610.83
6585.12 3423.57 3466.27 4577.59 4570.2
6587.95 3454.08 3455.38 4511.42 4563.08
6590.79 3488.49 3491.14 4600.24 4584.03
6593.62 3530.84 3509.65 4640.43 4627.55
6596.45 3509.61 3526.56 4641.98 4643.24
6599.28 3539.22 3533.79 4647.33 4650.1
6602.12 3552.53 3543.76 4661.01 4696.59
6604.95 3539.52 3539.07 4781.45 4686.1
6607.78 3525.17 3532.76 4615.84 4672.81
6610.61 3533.6 3526.3 4621.13 4645.48
6613.44 3520.13 3538.93 4699.46 4667.24
6616.28 3563.05 3516.92 4681.15 4649.3
6619.11 3467.59 3544.16 4567.29 4668.84
6621.94 3601.84 3550.91 4758.07 4671.98
6624.77 3583.3 3531.94 4690.58 4650.76
6627.6 3410.67 3482 4503.61 4580.19
6630.43 3452.02 3454.86 4546.37 4548.61
6633.26 3501.9 3474 4595.84 4586.43
6636.09 3468.09 3484.03 4617.08 4593.55
6638.92 3482.09 3517.6 4567.74 4621.91
6641.75 3602.63 3555.2 4680.91 4659.45
6644.58 3580.86 3581.5 4729.69 4685.37
6647.41 3561 3565.14 4645.51 4676.82
6650.24 3553.55 3573.46 4655.27 4669.57
6653.07 3605.83 3557.21 4707.92 4650.68
6655.9 3512.25 3613.05 4588.86 4713.2
6658.73 3721.07 3601.34 4842.82 4688.37
6661.56 3570.71 3611.37 4633.44 4688.93
6664.39 3542.33 3603.91 4590.52 4673.97
6667.22 3698.69 3587.17 4797.95 4671.18
6670.05 3520.5 3586.17 4625.05 4682.65
6672.87 3539.32 3530.67 4624.95 4611.73
6675.7 3532.19 3542.87 4585.19 4592.85
6678.53 3557.09 3553.65 4568.41 4601.62
6681.36 3571.68 3560.8 4651.27 4599.81
6684.19 3553.63 3558.76 4579.76 4630.16
6687.01 3550.98 3567.7 4659.46 4633.85
6689.84 3598.49 3572.44 4662.32 4642.22
6692.67 3567.84 3562.75 4604.88 4603.57
6695.5 3521.91 3537.16 4543.52 4582.6
6698.32 3521.72 3524.23 4599.41 4569.92
6701.15 3529.07 3513.5 4566.83 4558.51
6703.98 3489.69 3495.06 4509.29 4527.56
6706.8 3466.41 3497.14 4506.55 4528.88
6709.63 3535.32 3507.84 4570.8 4536.02
6712.45 3521.79 3518.9 4530.71 4533
6715.28 3499.6 3533.73 4497.49 4539.6
6718.11 3579.79 3575.83 4590.59 4567.17
6720.93 3648.1 3569.05 4613.44 4556.95
6723.76 3479.26 3564.11 4466.83 4548.42
6726.58 3564.98 3517.29 4564.98 4542.62
6729.41 3507.62 3522.23 4596.06 4544.8
6732.23 3494.08 3533.08 4473.36 4567.04
6735.06 3597.53 3548.09 4631.69 4548.66
6737.88 3552.66 3593.21 4540.95 4595.45
6740.71 3629.45 3569.38 4613.7 4547.28
6743.53 3526.05 3551.01 4487.18 4533.11
6746.36 3497.54 3512.64 4498.44 4508.71
6749.18 3514.34 3478.23 4540.52 4478.35
6752 3422.81 3520.5 4396.1 4538.33
6754.83 3624.37 3522.31 4678.37 4511.04
6757.65 3519.75 3564.07 4458.64 4557.3
6760.47 3548.08 3545.92 4534.88 4509.75
6763.3 3569.94 3528.31 4535.73 4489.9
6766.12 3466.9 3520.04 4399.08 4469.94
6768.94 3523.28 3540.59 4475.03 4490.64
6771.77 3631.58 3590.44 4597.82 4542.77
6774.59 3616.46 3597.44 4555.45 4554.8
6777.41 3544.28 3545.09 4511.12 4488.36
6780.23 3474.54 3496.34 4398.51 4437.78
6783.05 3470.19 3504.86 4403.71 4431.91
6785.88 3569.83 3549.45 4493.5 4479.59
6788.7 3608.32 3580.55 4541.56 4519.05
6791.52 3563.51 3553.81 4522.09 4488.75
6794.34 3489.59 3545.16 4402.59 4462.87
6797.16 3582.38 3553.54 4463.92 4458.25
6799.98 3588.65 3546.63 4508.25 4443.85
6802.8 3468.88 3514.19 4359.37 4440.78
6805.62 3485.04 3495.81 4454.71 4419
6808.45 3533.53 3505.03 4442.9 4443.27
6811.27 3496.52 3483.94 4432.19 4397.05
6814.09 3421.79 3468.47 4316.05 4373.65
6816.91 3487.12 3491.86 4372.7 4377.43
6819.73 3566.67 3534.55 4443.53 4426.11
6822.55 3549.87 3486.38 4462.09 4421.35
6825.37 3342.59 3455.1 4358.43 4403.39
6828.18 3472.84 3465.86 4389.64 4403.16
6831 3582.14 3443.45 4461.42 4365
6833.82 3275.38 3469.92 4243.93 4369.55
6836.64 3552.25 3420.17 4403.29 4316.07
6839.46 3432.9 3410.64 4300.99 4290.3
6842.28 3246.79 3373.48 4166.62 4252.79
6845.1 3440.74 3337.99 4290.76 4233.95
6847.92 3326.45 3431.02 4244.47 4298.5
6850.73 3525.88 3383.34 4360.28 4235.6
6853.55 3297.7 3447.73 4102.06 4256.21
6856.37 3519.6 3455.43 4306.29 4264.15
6859.19 3548.98 3421.48 4384.1 4267.24
6862 3195.87 3258.63 4111.34 4088.03
6864.82 3031.04 2948.15 3768.65 3764.46
6867.64 2617.54 2765.74 3413.38 3501.23
6870.46 2648.62 2615.26 3321.66 3347.23
6873.27 2579.62 2731.81 3306.66 3428.23
6876.09 2967.2 2845.24 3656.37 3539.66
6878.9 2988.91 3006.44 3655.95 3687.78
6881.72 3063.21 3008.36 3751.03 3709.49
6884.54 2972.97 3036.04 3721.48 3757.99
6887.35 3071.95 3010.46 3801.46 3740.64
6890.17 2986.47 3045.89 3698.99 3790.86
6892.98 3079.25 3061.17 3872.13 3788.96
6895.8 3117.79 3161.78 3795.76 3897.32
6898.61 3288.3 3177.06 4024.07 3910.11
6901.43 3125.09 3175.22 3910.49 3905.77
6904.24 3112.26 3173.29 3782.76 3889.24
6907.06 3282.53 3166.66 3974.47 3880.11
6909.87 3105.18 3190.19 3883.1 3918.34
6912.69 3182.86 3182.68 3897.44 3915.07
6915.5 3260.01 3214.87 3964.67 3914.52
6918.32 3201.75 3216.12 3881.44 3912.96
6921.13 3186.6 3214.32 3892.77 3922.7
6923.94 3254.61 3232.89 3993.89 3961.6
6926.76 3257.44 3268.15 3998.13 4008.04
6929.57 3292.41 3250.59 4032.1 3977.89
6932.38 3201.94 3242.44 3903.44 3947.26
6935.2 3232.98 3184 3906.24 3897.22
6938.01 3117.08 3205.53 3881.98 3954.23
6940.82 3266.53 3149.7 4074.48 3918.31
6943.63 3065.5 3209.98 3798.46 3943.87
6946.45 3297.9 3200.83 3958.68 3905.21
6949.26 3239.07 3271.51 3958.48 3963.69
6952.07 3277.57 3222.03 3973.9 3956.96
6954.88 3149.46 3252.85 3938.5 3988.91
6957.69 3331.53 3250.71 4054.34 3998.44
6960.5 3271.13 3323.27 4002.47 4041.62
6963.32 3367.16 3342.54 4068.06 4061.56
6966.13 3389.31 3337.42 4114.13 4047.74
6968.94 3255.79 3308.42 3961.01 4013.7
6971.75 3280.14 3271.26 3965.95 3957.93
6974.56 3277.84 3235.21 3946.83 3944
6977.37 3147.65 3208.4 3919.21 3910.11
6980.18 3199.71 3165.19 3864.3 3889.69
6982.99 3148.22 3209.46 3885.56 3915.18
6985.8 3280.45 3218.25 3995.66 3922.84
6988.61 3226.08 3222.75 3887.29 3909.61
6991.42 3161.73 3170.77 3845.89 3821.2
6994.23 3124.51 3168.78 3730.42 3820.18
6997.04 3220.11 3144.09 3884.22 3786.49
6999.85 3087.65 3161.51 3744.83 3809.38
7002.65 3176.77 3151.7 3799.1 3777.39
7005.46 3190.69 3168.2 3788.23 3785.24
7008.27 3137.14 3163.19 3768.39 3769.88
7011.08 3161.73 3134.39 3753.02 3750.99
7013.89 3104.3 3131.83 3731.56 3741.79
7016.7 3129.46 3115.15 3740.77 3740.64
7019.5 3111.68 3119.62 3749.59 3733.01
7022.31 3117.71 3097.79 3708.67 3702.9
7025.12 3063.98 3076.7 3650.45 3675.36
7027.93 3048.41 3104.99 3666.95 3717.19
7030.73 3202.57 3119.78 3834.16 3733.51
7033.54 3108.37 3156.5 3699.42 3775.73
7036.35 3158.56 3160.63 3793.61 3776.18
7039.15 3214.95 3200.1 3835.51 3840.82
7041.96 3226.81 3238.97 3893.32 3864.71
7044.77 3275.16 3222.22 3865.3 3857.76
7047.57 3164.69 3186.18 3814.66 3801.82
7050.38 3118.7 3155.38 3725.49 3771.35
7053.18 3182.75 3165.44 3773.91 3774.65
7055.99 3194.87 3164.87 3824.54 3769.6
7058.79 3116.99 3141.46 3710.35 3750.77
7061.6 3112.52 3105.78 3717.41 3689.64
7064.4 3087.82 3113.28 3641.16 3681.23
7067.21 3139.49 3111.25 3685.1 3671.99
7070.01 3106.44 3149.5 3689.71 3717.01
7072.82 3202.57 3172.46 3776.22 3742.45
7075.62 3208.39 3208.69 3761.41 3784.93
7078.43 3215.11 3175.89 3817.16 3747.68
7081.23 3104.16 3161.57 3664.48 3761.37
7084.03 3165.44 3103.77 3802.47 3696.86
7086.84 3041.71 3141.16 3623.63 3735.4
7089.64 3216.32 3159.86 3780.1 3738.42
7092.44 3221.54 3191.46 3811.53 3764.11
7095.25 3136.52 3152.36 3700.7 3719.53
7098.05 3099.03 3131.9 3646.37 3681.3
7100.85 3160.15 3133.13 3696.82 3675.52
7103.65 3140.2 3137.28 3683.37 3675.84
7106.46 3111.49 3103.23 3647.32 3662.01
7109.26 3058 3117.5 3655.33 3666.14
7112.06 3183.01 3079.36 3695.77 3620.77
7114.86 2997.08 3083.91 3511.22 3598.16
7117.66 3071.64 3034.17 3587.49 3549.31
7120.46 3033.78 3067.3 3549.22 3574.9
7123.27 3096.47 3066.3 3587.99 3553.26
7126.07 3068.66 3044.33 3522.57 3519.76
7128.87 2967.86 3053.37 3448.72 3536.39
7131.67 3123.59 3034.84 3637.86 3552.68
7134.47 3013.07 3080.67 3571.45 3604.44
7137.27 3105.34 3039.57 3604 3535.66
7140.07 3000.3 3058 3431.53 3526.06
7142.87 3068.37 3015.38 3542.66 3472.11
7145.67 2977.48 3015.71 3442.14 3469.07
7148.47 3001.26 2961.37 3422.42 3414.98
7151.27 2905.37 2972.85 3380.39 3434.44
7154.07 3011.92 2942.42 3500.52 3436.53
7156.87 2909.96 2955.08 3428.67 3426.24
7159.66 2943.37 2888.65 3349.51 3339.48
7162.46 2812.64 2858.35 3240.25 3298.25
7165.26 2819.05 2833.02 3304.98 3281.81
7168.06 2867.37 2813.87 3300.2 3246.95
7170.86 2755.18 2774.3 3135.65 3187.65
7173.66 2700.36 2737.59 3127.1 3141.85
7176.45 2757.24 2708.33 3162.8 3120.81
7179.25 2667.4 2658.15 3072.52 3057.16
7182.05 2549.82 2576.94 2936.15 2966.45
7184.85 2513.59 2531.56 2890.68 2909.07
7187.64 2531.27 2489.68 2900.38 2848.93
7190.44 2424.17 2487.08 2755.72 2838.97
7193.24 2505.81 2458.81 2860.82 2808.82
7196.03 2446.44 2489.86 2809.9 2845.93
7198.83 2517.32 2503.95 2867.08 2868.63
7201.62 2548.08 2542.55 2928.92 2913.61
7204.42 2562.24 2611.11 2944.84 2984.44
7207.22 2723.02 2660.41 3079.57 3037.99
7210.01 2695.98 2702.92 3089.55 3080.17
7212.81 2689.75 2755.51 3071.39 3140.33
7215.6 2880.81 2759.03 3260.06 3128.73
7218.4 2706.52 2785.61 3054.75 3153.35
7221.19 2769.5 2749.96 3145.23 3112.49
7223.99 2773.88 2743.87 3137.49 3121.44
7226.78 2688.25 2721.65 3081.59 3120.57
7229.57 2702.82 2661.62 3142.62 3051.56
7232.37 2593.8 2640.11 2930.45 3041.91
7235.16 2623.69 2547.72 3052.64 2954.7
7237.96 2425.67 2598.71 2881.01 2999.66
7240.75 2746.77 2640.36 3065.33 3017.12
7243.54 2748.63 2769.42 3105.02 3116.71
7246.34 2812.86 2828.83 3179.78 3185.22
7249.13 2925 2868.33 3270.85 3215.82
7251.92 2867.13 2851.88 3196.83 3183.58
7254.71 2763.5 2771.29 3083.04 3097.5
7257.51 2683.25 2668.2 3012.61 2991.68
7260.3 2557.84 2631.04 2879.4 2951.85
7263.09 2652.04 2644.23 2963.53 2972.84
7265.88 2722.79 2656.55 3075.6 3009.06
7268.67 2594.81 2657.59 2988.05 3010.47
7271.47 2655.19 2624.6 2967.76 2961.14
7274.26 2623.79 2662.38 2927.6 2945.8
7277.05 2708.16 2685.72 2942.05 2971.45
7279.84 2725.21 2669.47 3044.71 2958.12
7282.63 2575.05 2655.54 2887.61 2959.01
7285.42 2666.37 2543.87 2944.72 2837.88
7288.21 2390.18 2527.13 2681.32 2797.75
7291 2524.84 2493.54 2767.22 2767.04
7293.79 2565.6 2585.47 2852.58 2855.59
7296.58 2665.98 2645.54 2946.95 2935.58
7299.37 2705.04 2658.63 3007.22 2943.39
7302.16 2604.88 2583.94 2875.99 2855.23
7304.95 2441.91 2505.86 2682.48 2790.88
7307.74 2470.79 2508.81 2814.17 2791.39
7310.53 2613.73 2549 2877.53 2835.37
7313.31 2562.49 2639.36 2814.42 2897.11
7316.1 2741.86 2617.18 2999.37 2920.83
7318.89 2547.19 2652.53 2948.71 2974.68
7321.68 2668.55 2636.53 2975.97 2954.89
7324.47 2693.85 2686.24 2940 2977.61
7327.25 2696.32 2670.19 3016.87 2990.31
7330.04 2620.42 2711.58 3014.05 3033.73
7332.83 2818.01 2769.14 3070.26 3066.37
7335.62 2869.01 2818.9 3114.8 3068.86
7338.4 2769.69 2806.34 3021.51 3055.3
7341.19 2780.33 2752.75 3029.6 3010.02
7343.98 2708.22 2732.92 2978.95 2993.94
7346.76 2710.21 2673.27 2973.28 2932.4
7349.55 2601.36 2652.65 2844.96 2913.58
7352.33 2646.39 2609.28 2922.49 2895.12
7355.12 2580.1 2655.46 2917.9 2944.42
7357.91 2739.89 2643.44 2992.89 2946.24
7360.69 2610.34 2672.91 2927.94 2917.34
7363.48 2668.48 2654.46 2831.2 2886.35
7366.26 2684.55 2634.25 2899.91 2871.26
7369.05 2549.73 2620.54 2882.68 2881.29
7371.83 2627.35 2627.84 2861.3 2892.63
7374.62 2706.42 2680.32 2933.91 2904.31
7377.4 2707.18 2691.35 2917.72 2910.07
7380.18 2660.45 2645.46 2878.6 2862.83
7382.97 2568.74 2631.58 2792.18 2857.7
7385.75 2665.54 2599.82 2902.33 2825.85
7388.53 2565.17 2594.75 2783.04 2822.68
7391.32 2553.55 2600.57 2782.67 2806.39
7394.1 2682.99 2633.44 2853.46 2812.3
7396.88 2663.78 2682.7 2800.78 2844.52
7399.67 2701.34 2672.2 2879.32 2834.97
7402.45 2651.49 2614.03 2824.8 2792.19
7405.23 2489.26 2588.72 2672.44 2774.71
7408.01 2625.41 2535.79 2826.9 2731.82
7410.8 2492.69 2585.3 2696.12 2780.31
7413.58 2637.8 2588.01 2817.92 2787.48
7416.36 2633.53 2617.64 2848.4 2819.31
7419.14 2581.58 2617.56 2791.62 2821.86
7421.92 2637.56 2634.05 2825.56 2829.86
7424.7 2683 2675 2872.39 2851.37
7427.48 2704.43 2682.13 2856.17 2852.67
7430.26 2658.97 2676.91 2829.45 2837.72
7433.04 2667.32 2644.86 2827.55 2798.04
7435.82 2608.29 2624.94 2737.13 2766.07
7438.6 2599.22 2593.34 2733.54 2735.48
7441.38 2572.51 2571.7 2735.77 2752.77
7444.16 2543.35 2537.58 2789.01 2751.63
7446.94 2496.88 2563.7 2730.1 2770.79
7449.72 2650.88 2598.18 2793.26 2785.47
7452.5 2646.79 2639.17 2833.04 2808.25
7455.28 2619.83 2623.06 2798.43 2797.58
7458.06 2602.57 2589.09 2761.26 2735.59
7460.84 2544.86 2559.61 2647.09 2710.92
7463.62 2531.41 2542.54 2724.4 2682.96
7466.39 2551.34 2564.75 2677.39 2709.83
7469.17 2611.51 2598.29 2727.71 2720.12
7471.95 2632.01 2609.69 2755.26 2744.1
7474.73 2585.56 2549.67 2749.34 2758.98
7477.5 2431.45 2479.57 2772.33 2772.1
7480.28 2421.71 2357.96 2794.64 2726.73
7483.06 2220.73 2339.31 2613.22 2704.65
7485.83 2375.49 2286.9 2706.08 2631.61
7488.61 2264.48 2275.6 2575.55 2602.72
7491.39 2186.84 2246.22 2526.55 2581.33
7494.16 2287.34 2274.52 2641.89 2607.9
7496.94 2349.37 2321.52 2655.25 2651.19
7499.72 2327.84 2344.92 2656.42 2650.94
7502.49 2357.56 2352 2641.16 2649.62
7505.27 2370.59 2363.29 2651.27 2656.26
7508.04 2361.72 2327.29 2676.34 2635.23
7510.82 2249.56 2312.8 2578.09 2628.06
7513.59 2327.1 2315.41 2629.74 2629.03
7516.37 2369.57 2349.29 2679.26 2645.85
7519.14 2351.21 2347.64 2628.53 2633.01
7521.91 2322.15 2320.18 2591.23 2605.67
7524.69 2287.2 2342.65 2597.24 2628.84
7527.46 2418.6 2317.21 2698.04 2586.8
7530.23 2245.83 2314.89 2465.13 2568.38
7533.01 2280.22 2238.53 2541.97 2489.05
7535.78 2189.55 2250.9 2460.04 2517.1
7538.55 2282.94 2262.39 2549.28 2520.31
7541.33 2314.68 2308.36 2551.6 2558.27
7544.1 2327.46 2281.39 2573.92 2526.96
7546.87 2202.03 2240.67 2455.36 2482.89
7549.64 2192.51 2203.64 2419.39 2447.94
7552.42 2216.38 2203.57 2469.08 2428.12
7555.19 2201.81 2229.52 2395.88 2455.95
7557.96 2270.36 2239.21 2502.88 2458.85
7560.73 2245.47 2283.7 2477.78 2499.78
7563.5 2335.26 2281.54 2518.69 2500.36
7566.27 2263.87 2276.26 2504.62 2501.57
7569.04 2229.64 2229.24 2481.39 2456.17
7571.81 2194.2 2203.09 2382.5 2421.88
7574.58 2185.43 2196.39 2401.74 2405.5
7577.35 2209.55 2214.64 2432.26 2440.73
7580.12 2248.94 2200.96 2488.19 2413.58
7582.89 2144.39 2183.37 2320.29 2383.13
7585.66 2156.77 2101.68 2340.91 2300.8
7588.43 2003.86 2002.78 2241.21 2214.17
7591.2 1847.71 1735.3 2060.39 1959.36
7593.97 1354.34 1400.55 1576.48 1589.57
7596.74 999.604 1030.94 1131.84 1190.61
7599.51 738.872 790.485 863.501 904.776
7602.28 632.979 660.032 718.987 752.932
7605.04 608.245 636.263 676.307 708.714
7607.81 667.566 699.789 730.847 743.524
7610.58 823.557 874.176 823.418 918.4
7613.35 1131.41 1146.96 1200.94 1187.66
7616.12 1485.92 1345.66 1538.63 1409.37
7618.88 1419.66 1414.04 1488.56 1492.65
7621.65 1336.52 1322.75 1450.77 1413.19
7624.42 1212.07 1227.96 1300.25 1326.27
7627.18 1135.29 1142.99 1227.78 1235.45
7629.95 1081.61 1121.22 1178.31 1205.76
7632.72 1146.77 1159.93 1211.19 1225.06
7635.48 1251.41 1221.68 1285.68 1270.29
7638.25 1266.88 1269.34 1314 1319.55
7641.01 1289.75 1317.86 1358.97 1376.9
7643.78 1396.95 1383.87 1457.73 1445.84
7646.54 1464.9 1474.59 1520.83 1546.34
7649.31 1561.92 1545.62 1660.47 1627.39
7652.07 1610.05 1577.41 1700.87 1661.52
7654.84 1560.27 1608.38 1623.22 1682.81
7657.6 1654.82 1659.75 1724.34 1714.38
7660.37 1764.18 1722.42 1795.59 1788.19
7663.13 1748.26 1757.09 1844.65 1817.46
7665.89 1758.83 1781.96 1812.13 1856.14
7668.66 1838.78 1873.93 1911.63 1935.71
7671.42 2024.19 1936.54 2083.36 2005.01
7674.18 1946.65 1957.78 2020.03 2032.93
7676.95 1902.5 1954.7 1995.41 2037.46
7679.71 2014.95 1947.42 2096.95 2041.66
7682.47 1924.79 1957.71 2032.61 2033.84
7685.23 1933.38 1968.52 1971.96 2039.39
7687.99 2047.4 2004.74 2113.6 2071.66
7690.76 2033.44 2009.05 2129.41 2083.05
7693.52 1946.32 1976.88 2006.13 2051.8
7696.28 1950.89 1972.98 2019.86 2023.41
7699.04 2021.73 2004.27 2044.25 2037.79
7701.8 2040.18 2018.85 2049.26 2061.01
7704.56 1994.64 2021.51 2089.53 2078.54
7707.32 2029.7 2024.3 2096.84 2086.51
7710.08 2048.57 1997.88 2073.17 2034.43
7712.84 1915.37 1995.16 1933.28 2003.57
7715.6 2021.53 1949.05 2004.27 1959.15
7718.36 1910.24 1976.74 1939.9 2008.1
7721.12 1998.45 1978.81 2080.13 2041.41
7723.88 2027.75 2006.03 2104.2 2067.91
7726.64 1991.89 2027.42 2019.41 2067.56
7729.4 2062.62 2025.69 2079.06 2036.3
7732.16 2022.55 2037.21 2010.44 2045.97
7734.92 2026.45 2014.49 2048.4 2018.81
7737.68 1994.49 1971.6 1997.59 1991.63
7740.43 1893.87 1945.65 1928.89 1966.35
7743.19 1948.61 1911.78 1972.56 1930.05
7745.95 1892.86 1957.07 1888.7 1956.69
7748.71 2029.73 1983.21 2008.82 1987.31
7751.47 2027.03 2014.65 2064.4 2042.44
7754.22 1987.18 2022.6 2054.11 2047.58
7756.98 2053.58 1995.39 2024.22 2005.74
7759.74 1945.4 2008.69 1938.9 1986.82
7762.49 2027.08 2007.7 1997.35 1993.06
7765.25 2050.6 2029.86 2042.93 2017.43
7768 2011.9 2003.9 2012.01 2007.09
7770.76 1949.2 1980.89 1966.34 1976.94
7773.52 1981.57 1955.57 1952.46 1942.65
7776.27 1935.95 1937.33 1909.16 1910.71
7779.03 1894.47 1921.04 1870.52 1885.42
7781.78 1932.71 1932.19 1876.58 1909.6
7784.54 1969.4 1955.65 1981.72 1911.19
7787.29 1964.85 1985.75 1875.28 1939.12
7790.05 2023.02 1972.2 1960.36 1910.99
7792.8 1928.72 1968.52 1897.33 1942.58
7795.55 1953.82 1911.47 1970.06 1896.1
7798.31 1851.86 1918.41 1820.91 1893.71
7801.06 1949.54 1937.9 1890.16 1883.65
7803.81 2012.31 1965.77 1939.87 1900.28
7806.57 1935.46 1977.47 1870.81 1908.05
7809.32 1984.64 1953.21 1913.48 1893.53
7812.07 1939.52 1936.65 1896.31 1882.94
7814.83 1885.79 1943.18 1839.03 1872.23
7817.58 2004.24 1917.41 1881.36 1832.08
7820.33 1862.19 1927.62 1775.84 1844.45
7823.08 1916.43 1902.14 1876.15 1832.19
7825.83 1927.79 1902.93 1844.59 1845.95
7828.59 1864.55 1879.11 1817.12 1817.46
7831.34 1844.99 1845.96 1790.69 1783.52
7834.09 1828.34 1861.37 1742.74 1786.88
7836.84 1910.78 1896.13 1827.21 1819.33
7839.59 1949.29 1909.82 1888.04 1839.26
7842.34 1869.41 1884.02 1802.54 1819.93
7845.09 1833.37 1856 1769.22 1771.61
7847.84 1865.21 1854.02 1743.09 1766.69
7850.59 1863.47 1878.82 1787.77 1785.43
7853.34 1907.77 1918.96 1825.44 1820.65
7856.09 1985.64 1920.71 1848.73 1803.33
7858.84 1868.72 1911.99 1735.81 1803.93
7861.59 1881.61 1874.16 1827.26 1786.57
7864.34 1872.14 1865.9 1796.64 1785.07
7867.08 1843.96 1818.08 1731.31 1713.8
7869.83 1738.14 1818.81 1613.46 1683.89
7872.58 1874.31 1811.23 1706.89 1670.73
7875.33 1821.22 1824.78 1691.84 1693.24
7878.08 1778.79 1800.85 1680.98 1677.61
7880.82 1802.54 1795.25 1660.02 1668.58
7883.57 1804.42 1797.64 1664.73 1654.91
7886.32 1785.97 1793.95 1639.97 1640.59
7889.06 1791.46 1769.84 1617.08 1625.71
7891.81 1732.08 1771.33 1620.07 1638.41
7894.56 1790.44 1771.78 1678.07 1646.33
7897.3 1792.81 1798.86 1640.86 1660.41
7900.05 1813.32 1810.32 1662.29 1656.68
7902.8 1824.84 1792.8 1666.89 1641.41
7905.54 1740.24 1815.39 1595.04 1664.53
7908.29 1881.08 1774.8 1731.67 1643.9
7911.03 1703.07 1760.03 1605 1615.56
7913.78 1695.95 1723.7 1510.03 1570.14
7916.52 1772.1 1690.38 1595.4 1529.56
7919.27 1603.09 1697.42 1483.26 1562.84
7922.01 1717.08 1687 1609.87 1552.6
7924.75 1740.82 1711.58 1564.67 1569.57
7927.5 1676.82 1708.96 1534.17 1534.73
7930.24 1709.24 1689.69 1505.35 1512.85
7932.98 1683 1686.93 1499.04 1509.02
7935.73 1668.55 1668.87 1522.69 1493.82
7938.47 1655.07 1673.02 1459.74 1506.73
7941.21 1695.45 1674.34 1537.75 1490.05
7943.96 1672.51 1671.73 1472.67 1498.74
7946.7 1647.22 1691.35 1485.79 1503.72
7949.44 1754.31 1723.42 1552.69 1529.98
7952.18 1768.73 1740.74 1551.45 1542.31
7954.92 1699.19 1739.36 1522.79 1546.87
7957.67 1750.15 1710.2 1566.35 1514.81
7960.41 1681.26 1727.82 1455.28 1518.22
7963.15 1752.05 1718.28 1533.03 1505.69
7965.89 1721.55 1726.5 1528.75 1531.47
7968.63 1705.91 1713.29 1532.61 1530.38
7971.37 1712.41 1703.02 1529.77 1525.93
7974.11 1690.73 1699.81 1515.43 1516.91
7976.85 1696.28 1691.34 1505.52 1503.09
7979.59 1687.02 1687.77 1488.33 1498.74
7982.33 1680.02 1673.99 1502.37 1488.08
7985.07 1654.93 1695.15 1473.53 1498.1
7987.81 1750.49 1693.37 1518.41 1476.89
7990.55 1674.7 1695.27 1438.73 1462.41
7993.28 1660.6 1649.14 1430.09 1429.25
7996.02 1612.12 1633.89 1418.94 1427.39
7998.76 1628.96 1595.39 1433.15 1398.85
8001.5 1545.08 1601.68 1344.45 1401.72
8004.24 1630.99 1598.58 1427.56 1397.34
8006.97 1619.67 1638.29 1420.01 1424.91
8009.71 1664.21 1664.95 1427.15 1450.38
8012.45 1710.99 1702.15 1503.99 1479.56
8015.19 1731.26 1664.39 1507.55 1460.49
8017.92 1550.9 1611.96 1369.93 1393.21
8020.66 1553.7 1580.35 1302.15 1366.4
8023.39 1636.46 1594.37 1427.12 1351.05
8026.13 1592.95 1609.94 1323.88 1396.2
8028.87 1600.4 1599.72 1437.59 1377.38
8031.6 1605.8 1578.43 1370.67 1375.15
8034.34 1529.09 1584.75 1317.19 1355.81
8037.07 1619.36 1572.73 1379.57 1340.86
8039.81 1569.73 1570.48 1325.82 1330.1
8042.54 1522.34 1546.14 1284.91 1308.39
8045.28 1546.33 1533.91 1314.44 1301.16
8048.01 1533.04 1556.48 1304.14 1323.78
8050.75 1590.06 1569.22 1352.75 1334.75
8053.48 1584.56 1583.89 1347.35 1338.94
8056.21 1577.05 1594.08 1316.73 1347.19
8058.95 1620.62 1581.81 1377.5 1339.02
8061.68 1547.75 1596.12 1322.83 1354.54
8064.41 1620 1588.69 1363.29 1343.68
8067.14 1598.33 1590.69 1344.91 1340.77
8069.88 1553.74 1581.68 1314.11 1335.66
8072.61 1592.96 1570.36 1347.95 1314.02
8075.34 1564.39 1568.16 1280 1307.42
8078.07 1547.14 1536.16 1294.3 1273.25
8080.81 1496.95 1507.75 1245.46 1255.16
8083.54 1479.15 1485.66 1225.73 1232.34
8086.27 1480.89 1493.01 1225.83 1243.98
8089 1518.99 1512.01 1280.4 1254.37
8091.73 1536.15 1513.76 1256.88 1254.3
8094.46 1486.14 1494.7 1225.62 1231.22
8097.19 1461.81 1491.69 1211.17 1231.49
8099.92 1527.12 1505.8 1257.68 1239.85
8102.65 1528.49 1529.5 1250.72 1253.3
8105.38 1532.88 1527.11 1251.5 1256.74
8108.11 1519.97 1506.37 1268.01 1237.88
8110.84 1466.25 1482.15 1194.12 1214.18
8113.57 1460.22 1479.43 1180.42 1195.41
8116.3 1511.8 1492.15 1211.69 1204.93
8119.02 1504.41 1488.91 1222.69 1207.99
8121.75 1450.5 1461.59 1189.59 1191.18
8124.48 1429.85 1449.63 1161.25 1183.11
8127.21 1468.55 1449.51 1198.51 1182.58
8129.94 1450.14 1422.14 1187.97 1156.9
8132.66 1347.74 1394.39 1084.23 1128.7
8135.39 1385.28 1349.8 1113.91 1087.41
8138.12 1316.38 1392.84 1064.08 1116.51
8140.84 1476.86 1374.41 1171.55 1111.49
8143.57 1330 1378.44 1098.85 1125.21
8146.3 1328.45 1330.37 1105.25 1086.6
8149.02 1332.66 1326.16 1055.7 1059.4
8151.75 1317.36 1323.89 1017.26 1052.98
8154.48 1321.66 1346.24 1085.98 1081.04
8157.2 1399.71 1325.42 1139.88 1075.8
8159.93 1254.9 1296.32 1001.54 1047.6
8162.65 1234.35 1251.96 1001.38 1010.33
8165.38 1266.62 1249.69 1028.07 1009.97
8168.1 1248.1 1254.2 1000.45 1002.48
8170.82 1247.9 1264.98 978.928 1001.35
8173.55 1298.95 1266.19 1024.68 1000.73
8176.27 1251.73 1253.11 998.596 994.02
8179 1208.65 1228.08 958.788 979.117
8181.72 1223.86 1245.01 979.967 987.274
8184.44 1302.53 1253.96 1023.07 1001.75
8187.17 1235.5 1264.84 1002.2 1007.76
8189.89 1256.48 1257.21 998 1003.91
8192.61 1279.64 1254.02 1011.51 1001.72
8195.33 1225.95 1253.66 995.656 998.378
8198.05 1255.39 1271.4 987.965 992.106
8200.78 1332.88 1295.33 992.697 996.796
8203.5 1297.72 1342.05 1009.72 1023.4
8206.22 1395.55 1362.31 1067.78 1064.12
8208.94 1393.65 1379.15 1114.84 1076.41
8211.66 1348.25 1341.17 1046.61 1049.31
8214.38 1281.62 1314.26 986.47 1021.93
8217.1 1312.91 1274.59 1032.7 988.794
8219.82 1229.22 1264.28 947.21 979.202
8222.54 1250.7 1231.87 957.694 949.297
8225.26 1215.67 1170.52 942.986 910.686
8227.98 1045.17 1120.2 831.377 868.259
8230.7 1099.77 1091.48 830.415 843.194
8233.42 1129.5 1158.18 867.79 879.714
8236.14 1245.28 1232.63 940.938 938.456
8238.86 1323.11 1290.04 1006.64 985.083
8241.58 1301.73 1324.68 1007.67 1011.84
8244.29 1349.19 1333.75 1021.21 1022.77
8247.01 1350.33 1363.56 1039.41 1040.09
8249.73 1391.14 1356.79 1059.64 1029.73
8252.45 1328.91 1340.93 990.125 1020.33
8255.16 1302.74 1292.71 1011.21 988.811
8257.88 1246.48 1279.09 965.098 991.817
8260.6 1288.07 1275.96 999.144 983.211
8263.32 1293.33 1324.32 985.393 1003.86
8266.03 1391.57 1340.97 1027.03 1008.64
8268.75 1338 1320.05 1013.5 994.056
8271.46 1230.57 1265.68 941.633 972.385
8274.18 1228.47 1211.41 962.02 924.555
8276.89 1175.18 1241.36 870.012 934.527
8279.61 1320.43 1261.98 971.548 941.542
8282.33 1290.33 1276.02 983.066 956.472
8285.04 1217.29 1234.57 914.802 943.099
8287.75 1196.1 1227.99 931.43 923.936
8290.47 1270.57 1239.37 925.575 931.937
8293.18 1251.43 1275.14 938.805 930.39
8295.9 1303.43 1300.02 926.792 980.22
8298.61 1345.21 1316.72 1075.06 999.312
8301.32 1301.53 1297.71 996.082 996.159
8304.04 1246.4 1280.19 917.332 954.85
8306.75 1292.65 1289.07 951.137 954.78
8309.46 1328.15 1296.17 995.872 972.009
8312.17 1267.72 1306.68 969.019 988.12
8314.89 1324.17 1289.7 999.469 973.363
8317.6 1277.2 1282.95 951.6 948.511
8320.31 1247.48 1253.6 894.464 917.915
8323.02 1236.11 1244.24 907.682 909.615
8325.73 1249.13 1245.99 926.698 914.923
8328.44 1252.74 1253.68 910.39 913.496
8331.16 1259.17 1252 903.4 908.761
8333.87 1244.08 1240.47 912.493 906.414
8336.58 1218.16 1238.86 903.349 911.532
8339.29 1254.33 1258.69 918.755 895.066
8342 1303.57 1255.19 863.094 881.214
8344.71 1207.67 1212.53 861.794 907.067
8347.42 1126.36 1169.82 996.314 921.501
8350.13 1175.43 1150.31 906.396 939.832
8352.83 1149.15 1146.49 916.787 920.18
8355.54 1114.9 1141.34 937.357 919.217
8358.25 1159.98 1152.85 903.506 901.285
8360.96 1183.68 1183.19 862.993 892.042
8363.67 1205.9 1227.11 909.629 907.438
8366.38 1291.76 1243.44 949.694 928.195
8369.08 1232.65 1244.31 925.262 931.247
8371.79 1208.52 1206.95 918.785 924.97
8374.5 1179.67 1190.16 930.863 927.41
8377.2 1182.29 1208.3 932.581 941.613
8379.91 1262.93 1212.53 961.394 924.809
8382.62 1192.37 1180.12 880.451 891.849
8385.32 1085.06 1128.8 833.701 861.133
8388.03 1108.97 1134.07 869.248 878.563
8390.74 1208.18 1179.93 932.741 908.157
8393.44 1222.64 1205.96 922.483 916.051
8396.15 1187.07 1194.16 892.93 897.614
8398.85 1172.76 1195.54 877.428 891.201
8401.56 1226.79 1191.78 903.246 878.281
8404.26 1175.8 1189.5 854.169 870.387
8406.97 1165.92 1189.74 853.746 881.624
8409.67 1227.51 1222.77 936.955 896.405
8412.37 1274.87 1235.57 898.513 903.404
8415.08 1204.34 1242.33 874.743 874.762
8417.78 1247.79 1197.97 851.028 872.258
8420.48 1141.78 1177.3 891.001 879.691
8423.19 1142.31 1199.02 897.043 901.892
8425.89 1312.96 1244.39 917.633 937.933
8428.59 1277.88 1256.63 999.123 937.777
8431.29 1179.04 1242.22 896.575 970.504
8434 1269.74 1213.69 1015.81 944.421
8436.7 1192.28 1205.07 920.874 926.509
8439.4 1153.17 1174.43 842.84 877.598
8442.1 1177.84 1163.56 869.08 868.449
8444.8 1159.68 1181.1 893.426 864.813
8447.5 1205.78 1189.55 831.933 860.815
8450.2 1203.2 1220.2 857.085 864.599
8452.9 1251.63 1217.98 904.778 858.608
8455.6 1199.12 1231.6 813.961 878.745
8458.3 1244.06 1251.86 917.496 875.948
8461 1312.4 1267.75 896.387 881.586
8463.7 1246.79 1245.03 830.876 837.141
8466.4 1175.91 1194.52 784.16 808.613
8469.1 1160.86 1165.85 810.804 819.828
8471.8 1160.76 1186.52 864.52 848.201
8474.5 1237.94 1200.17 869.279 869.957
8477.2 1201.81 1210.78 876.071 877.237
8479.89 1192.58 1195.71 886.36 869.324
8482.59 1192.74 1216.43 845.542 877.088
8485.29 1263.97 1234.36 899.362 870.392
8487.99 1246.37 1265.1 866.271 893.036
8490.68 1284.94 1231.23 913.476 871.823
8493.38 1162.37 1176.19 835.724 847.892
8496.08 1081.25 1087.33 794.477 781.66
8498.77 1018.35 1080.77 714.779 748.849
8501.47 1142.7 1106.67 737.292 742.775
8504.17 1158.96 1176.24 776.256 774.122
8506.86 1227.07 1199.84 808.818 826.936
8509.56 1213.5 1201.59 895.733 841.42
8512.25 1164.21 1164.39 819.709 813.712
8514.95 1115.46 1169.82 725.694 786.925
8517.64 1229.8 1179.2 815.372 787.016
8520.34 1192.35 1200.23 819.984 815.744
8523.03 1178.53 1203.66 811.877 830.536
8525.72 1240.11 1199.07 859.748 824.997
8528.42 1178.57 1209.04 803.364 818.906
8531.11 1208.43 1185.97 793.605 793.989
8533.8 1170.91 1139.21 784.997 774.46
8536.5 1038.3 1077.36 744.779 739.851
8539.19 1022.87 993.069 689.777 686.473
8541.88 918.035 960.489 624.861 637.174
8544.57 940.558 981.022 596.883 638.471
8547.27 1084.47 1043.62 693.669 688.202
8549.96 1105.83 1130.02 774.053 766.777
8552.65 1199.77 1169.84 832.609 805.604
8555.34 1203.93 1190.18 810.15 812.513
8558.03 1166.84 1195.84 794.779 801.01
8560.72 1216.76 1208.08 798.1 807.178
8563.41 1240.64 1208.39 828.656 808.574
8566.1 1167.76 1225.23 798.967 825.224
8568.79 1267.28 1224.81 848.049 819.308
8571.48 1239.38 1237.85 810.908 827.812
8574.17 1206.89 1224.68 824.478 812.585
8576.86 1227.77 1228.03 802.368 818.768
8579.55 1249.43 1233.35 829.458 825.223
8582.24 1222.84 1220.5 843.843 827.571
8584.93 1189.23 1218.08 809.412 816.512
8587.62 1242.17 1231.91 796.282 813.573
8590.31 1264.33 1251.61 835.025 822.028
8592.99 1248.34 1241.7 834.776 820.846
8595.68 1212.42 1237.87 792.738 809.208
8598.37 1252.84 1231.68 800.109 797.554
8601.06 1229.79 1222.45 799.815 785.675
8603.74 1184.71 1197.97 757.102 773.269
8606.43 1179.4 1190.51 762.891 777.588
8609.12 1207.43 1211.17 812.772 783.562
8611.8 1246.67 1229.44 775.024 802.702
8614.49 1234.23 1239.12 820.309 806.123
8617.18 1236.46 1245.44 823.037 813.485
8619.86 1265.62 1216.24 797.109 795.699
8622.55 1146.65 1236.68 766.95 801.519
8625.23 1297.76 1225.92 840.497 794.419
8627.92 1233.34 1252.55 775.811 802.643
8630.6 1226.53 1239.68 791.622 784.428
8633.29 1259.18 1231.33 785.852 774.105
8635.97 1208.27 1254.03 744.841 786.305
8638.65 1294.65 1258.39 828.223 805.494
8641.34 1272.25 1258.24 843.419 816.87
8644.02 1207.83 1230.84 778.968 821.496
8646.7 1212.44 1228.64 842.1 793.064
8649.39 1265.64 1244.9 758.124 803.947
8652.07 1256.62 1243.09 811.617 775.684
8654.75 1206.99 1208.02 757.31 786.87
8657.43 1160.46 1139.84 791.684 741.443
8660.12 1052.07 1074.23 675.334 686.875
8662.8 1010.14 1045.48 593.608 650.163
8665.48 1074.22 1086.65 681.546 649.238
8668.16 1175.57 1149.05 672.561 700.348
8670.84 1197.35 1183 746.936 717.979
8673.52 1176.08 1191.02 734.441 745.601
8676.2 1199.61 1210.03 755.427 751.316
8678.88 1254.39 1219.22 764.081 741.838
8681.56 1203.66 1225.34 706.005 737.176
8684.24 1217.97 1220.28 741.442 729.764
8686.92 1239.2 1227.87 741.846 728.166
8689.6 1226.43 1226.6 701.21 717.978
8692.28 1214.17 1233.62 710.877 708.784
8694.96 1260.25 1233.77 714.264 712.351
8697.64 1226.89 1267.69 711.91 724.511
8700.32 1315.94 1267.46 747.359 742.483
8702.99 1259.56 1281.52 768.18 746.852
8705.67 1269.05 1274.72 725.019 740.593
8708.35 1295.55 1297.88 728.58 741.679
8711.03 1329.05 1300.46 771.439 748.614
8713.7 1276.77 1290.56 745.824 745.353
8716.38 1265.86 1260.87 718.797 721.162
8719.06 1239.99 1261.15 698.864 712.497
8721.73 1277.6 1256.27 719.83 715.7
8724.41 1251.22 1255.78 728.408 730.621
8727.08 1238.53 1259.76 743.625 731.422
8729.76 1289.52 1239.28 722.233 736.106
8732.44 1189.8 1238.02 742.46 723.183
8735.11 1234.75 1233.76 704.858 718.613
8737.79 1276.73 1244.4 708.522 686.655
8740.46 1221.73 1280.22 646.585 696.441
8743.13 1342.2 1271.88 734.216 700.041
8745.81 1251.72 1285.24 719.322 719.341
8748.48 1261.8 1249.51 704.486 708.024
8751.16 1235.02 1247.81 700.264 714.088
8753.83 1246.6 1225.32 737.514 705.681
8756.5 1194.35 1226.46 679.264 705.826
8759.17 1238.43 1224.62 700.7 703.964
8761.85 1241.07 1284.8 731.929 703.86
8764.52 1374.88 1300.67 678.951 662.757
8767.19 1286.06 1308.43 577.391 644.761
8769.86 1264.34 1252.63 677.941 662.768
8772.54 1207.5 1239.09 732.971 723.774
8775.21 1245.41 1247.81 760.411 740.644
8777.88 1290.51 1257.38 728.551 731.65
8780.55 1236.22 1244.86 705.987 684.363
8783.22 1207.84 1212.36 618.55 661.914
8785.89 1193 1192.67 661.204 656.527
8788.56 1177.18 1184.81 689.826 674.842
8791.23 1184.24 1178.41 673.495 659.562
8793.9 1173.81 1198.69 615.364 639.28
8796.57 1238.01 1224.76 628.982 633.585
8799.24 1262.46 1263.94 656.408 652.529
8801.91 1291.36 1259.74 672.197 663.463
8804.58 1225.38 1239.04 661.783 652.235
8807.24 1200.37 1195.97 622.723 616.814
8809.91 1162.17 1208.15 565.936 609.41
8812.58 1261.9 1192.84 639.571 600.53
8815.25 1154.46 1215.42 596.082 622.562
8817.91 1229.89 1182.86 632.033 612.128
8820.58 1164.24 1207.44 608.269 633.206
8823.25 1228.19 1211.68 659.315 643.723
8825.92 1242.61 1238.18 663.586 633.613
8828.58 1243.75 1233.44 577.937 600.582
8831.25 1213.97 1212.39 560.222 597.694
8833.91 1179.47 1206.13 654.924 627.99
8836.58 1224.95 1215.26 668.823 672.161
8839.24 1241.37 1236.86 692.737 672.15
8841.91 1244.25 1223.26 654.89 672.299
8844.57 1184.16 1232.87 669.269 672.175
8847.24 1270.21 1244.64 692.367 672.106
8849.9 1279.54 1285.55 654.681 656.114
8852.57 1306.9 1285.43 621.293 640.197
8855.23 1269.84 1265.18 644.618 621.819
8857.9 1218.79 1239.81 599.545 618.777
8860.56 1230.8 1200.94 612.167 613.236
8863.22 1153.21 1201.37 627.997 613.973
8865.88 1220.08 1193.04 601.754 585.784
8868.55 1205.81 1205.73 527.602 553.053
8871.21 1191.28 1195.97 529.802 533.9
8873.87 1190.83 1202.17 544.297 547.356
8876.53 1224.41 1212.52 567.971 582.107
8879.2 1222.34 1190.65 634.053 608.156
8881.86 1125.19 1212.04 622.445 629.943
8884.52 1288.59 1216.55 633.33 581.348
8887.18 1235.86 1235.48 488.271 520.874
8889.84 1182 1199.04 441.022 466.938
8892.5 1179.25 1157.89 471.52 475.858
8895.16 1112.42 1156.39 515.031 539.284
8897.82 1177.51 1175.86 631.3 613.676
8900.48 1237.65 1222.47 694.697 655.342
8903.14 1252.23 1232.06 640.028 645.666
8905.8 1206.29 1201.28 602.273 572.025
8908.46 1145.32 1203.1 473.774 549.067
8911.12 1257.7 1228.67 571.155 555.704
8913.77 1282.98 1265.4 622.183 618.693
8916.43 1255.52 1254.79 662.741 634.644
8919.09 1225.88 1230.94 619.007 590.929
8921.75 1211.41 1209.28 491.037 534.337
8924.4 1190.56 1186.92 492.965 480.457
8927.06 1158.8 1151.71 457.368 496.033
8929.72 1105.77 1156.59 537.766 544.292
8932.38 1205.2 1156.12 637.74 587.215
8935.03 1157.39 1166.89 586.138 582.532
8937.69 1138.08 1153.04 523.718 568.689
8940.34 1163.65 1159.71 596.212 566.229
8943 1177.39 1145.69 578.757 547.508
8945.65 1096.04 1136.37 467.556 506.104
8948.31 1135.68 1107.16 472 462.778
8950.96 1089.77 1095.92 448.777 473.547
8953.62 1062.31 1086.12 499.864 496.692
8956.27 1106.28 1106.79 541.435 495.726
8958.93 1151.79 1117.38 445.88 473.546
8961.58 1094.07 1079.35 433.324 409.813
8964.23 992.176 1016.52 350.236 414.814
8966.89 963.319 982.583 460.883 422.579
8969.54 992.253 968.656 456.617 461.817
8972.19 950.396 992.821 467.951 466.393
8974.85 1035.81 1020.16 474.611 465.691
8977.5 1074.27 1042.01 454.51 441.435
8980.15 1015.96 1045.18 395.184 430.767
8982.8 1045.3 1028.28 442.606 427.273
8985.45 1023.57 1014.28 444.03 439.577
8988.1 973.966 978.807 432.094 417.252
8990.76 938.888 924.849 375.631 379.484
8993.41 861.693 899.858 330.727 358.172
8996.06 898.993 892.695 368.157 372.864
8998.71 917.4 915.962 419.707 403.745
9001.36 931.494 919.116 423.371 377.435
9004.01 908.453 921.513 289.228 363.023
9006.66 924.593 908.252 376.47 339.412
9009.31 891.71 910.679 352.538 398.812
9011.95 915.734 892.254 467.427 391.475
9014.6 869.318 906.217 354.461 410.455
9017.25 933.599 908.657 409.478 392.5
9019.9 923.053 922.764 413.561 400.773
9022.55 911.64 941.52 379.28 380.006
9025.19 989.868 953.925 347.178 366.936
9027.84 960.268 963.316 374.35 363.227
9030.49 939.812 963.375 368.154 368.797
9033.14 990.046 989.837 363.888 375.212
9035.78 1039.65 1031.62 393.593 404.97
9038.43 1065.18 1060.65 457.43 417.593
9041.08 1077.13 1072.74 401.756 422.666
9043.72 1075.9 1055.14 408.813 418.96
9046.37 1012.4 1042.95 446.312 408.86
9049.01 1040.56 1033.94 371.455 395.256
9051.66 1048.85 1044.38 368.001 379.304
9054.3 1043.71 1036.83 398.454 375.171
9056.95 1017.92 1040.31 359.057 399.152
9059.59 1059.3 1026.59 439.946 408.726
9062.23 1002.54 1008.21 427.175 430.066
9064.88 962.798 969.07 423.075 412.506
9067.52 941.869 893.133 387.267 378.571
9070.17 774.73 752.376 325.37 309.6
9072.81 540.528 438.419 216.164 180.511
