wavelength spectrum_sum 3smoothed_sum spectrum_optimal 3smoothed_optimal
3507.54 53.2782 44.2398 60.671 50.5273
3510.45 79.4412 73.3594 90.9107 81.383
3513.36 87.3588 90.7523 92.5673 96.7847
3516.26 105.457 97.7092 106.876 101.813
3519.17 100.312 96.2947 105.994 98.1367
3522.07 83.1155 93.1728 81.5397 94.0904
3524.98 96.0912 94.7338 94.737 90.5871
3527.89 104.995 97.9795 95.4845 89.9442
3530.79 92.8525 100.399 79.6112 93.2914
3533.7 103.349 105.457 104.778 102.497
3536.6 120.17 117.414 123.101 115.751
3539.51 128.723 133.277 119.372 128.199
3542.42 150.938 134.918 142.124 126.575
3545.32 125.094 132.164 118.228 128.674
3548.23 120.461 115.784 125.669 119.293
3551.13 101.798 112.508 113.983 118.957
3554.04 115.265 119.207 117.219 123.486
3556.95 140.56 121.617 139.256 124.673
3559.85 109.026 118.031 117.543 119.565
3562.76 104.506 96.4044 101.896 98.5939
3565.67 75.6806 95.1936 76.3427 94.5005
3568.57 105.394 97.1021 105.263 96.3859
3571.48 110.232 101.26 107.552 95.6164
3574.39 88.1538 94.2722 74.0342 89.0701
3577.29 84.431 89.4445 85.6241 88.3036
3580.2 95.7485 84.1536 105.252 91.0786
3583.11 72.2813 91.0261 82.3592 98.2871
3586.01 105.049 103.975 107.25 105.156
3588.92 134.594 131.253 125.86 130.105
3591.83 154.116 147.147 157.206 143.454
3594.73 152.733 150.991 147.297 150.404
3597.64 146.125 149.131 146.71 142.465
3600.55 148.534 151.687 133.387 145.432
3603.45 160.403 144.444 156.199 134.95
3606.36 124.395 149.042 115.265 142.695
3609.27 162.328 139.604 156.621 134.615
3612.18 132.088 145.358 131.96 143.634
3615.08 141.658 139.131 142.322 132.745
3617.99 143.646 145.859 123.954 141.379
3620.9 152.274 164.817 157.862 159.147
3623.8 198.531 179.945 195.624 177.941
3626.71 189.029 179.405 180.336 177.698
3629.62 150.655 178.096 157.134 171.232
3632.53 194.605 179.516 176.226 178.236
3635.43 193.287 191.484 201.347 191.544
3638.34 186.559 189.849 197.06 190.123
3641.25 189.702 187.456 171.961 185.19
3644.15 186.107 188.995 186.548 181.057
3647.06 191.177 194.068 184.661 191.661
3649.97 204.919 208.104 203.773 203.414
3652.88 228.215 213.783 221.807 214.295
3655.78 208.214 225.192 217.305 231.382
3658.69 239.147 225.926 255.034 234.194
3661.6 230.417 236.815 230.242 244.979
3664.51 240.883 234.863 249.66 245.096
3667.41 233.289 238.523 255.385 247.908
3670.32 241.398 238.958 238.68 250.133
3673.23 242.187 240.84 256.333 247.223
3676.14 238.936 240.704 246.656 245.485
3679.04 240.988 226.969 233.465 228.035
3681.95 200.983 226.1 203.983 223.985
3684.86 236.328 228.006 234.506 228.14
3687.77 246.706 242.599 245.931 236.505
3690.68 244.762 249.115 229.078 245.158
3693.58 255.875 253.504 260.465 249.582
3696.49 259.875 256.015 259.202 253.492
3699.4 252.295 241.717 240.808 238.074
3702.31 212.981 231.131 214.211 231.801
3705.22 228.115 241.548 240.385 241.264
3708.12 283.548 268.854 269.197 261.497
3711.03 294.9 276.864 274.909 265.23
3713.94 252.144 256.09 251.585 245.532
3716.85 221.225 239.11 210.104 238.826
3719.75 243.96 238.228 254.79 235.637
3722.66 249.498 262.826 242.018 268.604
3725.57 295.021 255.266 309.003 254.973
3728.48 221.28 246.598 213.899 248.252
3731.39 223.494 223.637 221.855 222.497
3734.3 226.136 227.736 231.736 228.724
3737.2 233.577 229.796 232.581 236.058
3740.11 229.675 224.809 243.857 223.901
3743.02 211.175 211.111 195.266 211.118
3745.93 192.484 204.722 194.231 200.482
3748.84 210.506 217.936 211.949 224.187
3751.74 250.818 244.908 266.382 254.813
3754.65 273.4 271.791 286.108 277.525
3757.56 291.154 272.649 280.086 276.74
3760.47 253.393 289.776 264.026 290.366
3763.38 324.781 305.083 326.986 309.531
3766.29 337.075 341.71 337.582 346.231
3769.19 363.275 356.836 374.124 360.043
3772.1 370.158 370.966 368.422 377.246
3775.01 379.466 370.652 389.192 381.954
3777.92 362.331 378.485 388.249 403.585
3780.83 393.657 373.873 433.313 400.528
3783.74 365.629 373.295 380.024 394.613
3786.65 360.598 365.259 370.502 381.729
3789.55 369.548 367.711 394.66 382.2
3792.46 372.985 363.147 381.436 378.544
3795.37 346.908 357.087 359.536 366.265
3798.28 351.368 357.613 357.822 362.019
3801.19 374.563 362.274 368.697 366.501
3804.1 360.89 359.346 372.985 369.194
3807.01 342.585 363.664 365.899 374.282
3809.91 387.517 344.133 383.963 357.093
3812.82 302.296 330.384 321.418 341.102
3815.73 301.34 294.955 317.926 312.312
3818.64 281.231 270.638 297.593 292.278
3821.55 229.345 252.564 261.315 271.826
3824.46 247.117 238.426 256.57 258.625
3827.37 238.816 238.301 257.991 254.588
3830.27 228.971 233.252 249.203 251.193
3833.18 231.969 236.814 246.385 256.416
3836.09 249.502 247.573 273.662 255.65
3839 261.247 273.17 246.904 286.085
3841.91 308.76 312.739 337.69 318.07
3844.82 368.209 334.873 369.616 356
3847.73 327.651 355.99 360.695 374.623
3850.64 372.108 333.849 393.559 364.709
3853.55 301.787 337.767 339.875 357.061
3856.45 339.407 318.736 337.751 338.207
3859.36 315.014 333.299 336.997 348.534
3862.27 345.475 335.086 370.853 352.825
3865.18 344.768 345.445 350.625 357.037
3868.09 346.091 337.774 349.633 342.129
3871 322.463 338.591 326.128 343.009
3873.91 347.218 335.674 353.266 354.354
3876.82 337.342 342.514 383.669 366.666
3879.73 342.982 340.857 363.062 368.924
3882.63 342.248 356.979 360.041 374.856
3885.54 385.706 395.959 401.463 412.626
3888.45 459.922 434.479 476.374 453.394
3891.36 457.807 465.869 482.346 478.033
3894.27 479.879 466.246 475.378 472.977
3897.18 461.052 459.923 461.206 457.823
3900.09 438.838 453.259 436.885 447.8
3903 459.885 470.002 445.31 462.806
3905.91 511.281 498.24 506.222 497.626
3908.82 523.553 534.673 541.347 549.714
3911.72 569.184 549.465 601.574 567.397
3914.63 555.659 537.083 559.27 559.571
3917.54 486.406 505.666 517.871 527.062
3920.45 474.935 447.912 504.044 478.57
3923.36 382.396 402.223 413.795 424.634
3926.27 349.34 336.169 356.061 351.864
3929.18 276.771 291.184 285.736 301.305
3932.09 247.441 276.319 262.118 292.748
3935 304.744 300.572 330.389 314.377
3937.91 349.532 355.716 350.624 364.931
3940.82 412.871 392.807 413.78 402.784
3943.72 416.018 442.692 443.949 449.732
3946.63 499.185 478.604 491.467 490.441
3949.54 520.608 527.542 535.908 537.985
3952.45 562.834 538.887 586.579 554.821
3955.36 533.22 524.701 541.978 542.296
3958.27 478.048 480.236 498.331 497.778
3961.18 429.441 417.904 453.026 433.206
3964.09 346.222 368.109 348.262 383.334
3967 328.665 334.587 348.715 348.249
3969.91 328.874 376.446 347.769 392.934
3972.82 471.799 438.696 482.316 454.713
3975.73 515.415 509.115 534.055 523.872
3978.63 540.132 561.511 555.244 584.274
3981.54 628.986 612.477 663.522 637.278
3984.45 668.313 688.159 693.069 726.16
3987.36 767.177 745.783 821.889 783.329
3990.27 801.857 793.231 835.029 833.915
3993.18 810.658 799.877 844.828 825.759
3996.09 787.115 812.711 797.421 845.316
3999 840.361 830.801 893.701 861.778
4001.91 864.928 846.226 894.213 890.956
4004.82 833.391 865.983 884.954 906.734
4007.73 899.63 862.237 941.036 913.791
4010.64 853.692 840.719 915.382 948.467
4013.54 768.835 794.862 988.982 964.241
4016.45 762.06 760.564 988.359 984.608
4019.36 750.797 772.542 976.482 998.312
4022.27 804.769 765.196 1030.1 988.444
4025.18 740.022 758.075 958.754 979.088
4028.09 729.433 718.398 948.415 938.31
4031 685.739 725.836 907.761 943.641
4033.91 762.335 725.863 974.746 941.01
4036.82 729.514 738.379 940.524 960.76
4039.73 723.289 721.857 967.01 940.742
4042.64 712.769 708.847 914.691 924.119
4045.55 690.482 711.242 890.657 920.549
4048.46 730.475 727.959 956.298 942.793
4051.36 762.921 745.544 981.423 965.165
4054.27 743.236 754.914 957.773 971.935
4057.18 758.585 739.503 976.608 960.682
4060.09 716.686 727.06 947.664 950.701
4063 705.908 722.017 927.83 947.192
4065.91 743.458 734.332 966.081 960.362
4068.82 753.63 744.18 987.174 960.475
4071.73 735.451 745.139 928.17 963.049
4074.64 746.336 748.399 973.803 965.09
4077.55 763.41 787.481 993.298 1018.29
4080.46 852.697 833.465 1087.76 1076.39
4083.37 884.288 879.002 1148.11 1130.87
4086.27 900.021 906.092 1156.75 1168.79
4089.18 933.969 922.39 1201.51 1181.96
4092.09 933.181 881.117 1187.61 1128.31
4095 776.202 835.113 995.806 1067.25
4097.91 795.956 802.002 1018.33 1027.9
4100.82 833.846 836.272 1069.56 1056.49
4103.73 879.012 871.176 1081.58 1094.27
4106.64 900.669 885.3 1131.66 1111.04
4109.55 876.218 893.712 1119.88 1133.24
4112.46 904.248 916.739 1148.18 1165.59
4115.37 969.752 938.395 1228.72 1202.47
4118.27 941.187 963.72 1230.49 1237.8
4121.18 980.221 971.551 1254.19 1253.63
4124.09 993.244 976.454 1276.22 1254.57
4127 955.896 942.528 1233.31 1220.88
4129.91 878.444 919.67 1153.11 1186.7
4132.82 924.67 927.858 1173.67 1193.34
4135.73 980.461 977.92 1253.25 1248.14
4138.64 1028.63 977.263 1317.49 1260.44
4141.55 922.7 961.727 1210.58 1242.42
4144.46 933.851 962.376 1199.2 1229.92
4147.36 1030.58 991.711 1279.97 1260.18
4150.27 1010.71 1010.36 1301.37 1281.43
4153.18 989.807 992.887 1262.95 1281.9
4156.09 978.146 999.572 1281.37 1293.79
4159 1030.76 1020.76 1337.04 1320.22
4161.91 1053.37 1052.3 1342.25 1343.48
4164.82 1072.76 1050.83 1351.14 1341.98
4167.73 1026.36 1034.75 1332.56 1324.72
4170.64 1005.15 993.698 1290.46 1281.27
4173.55 949.585 993.902 1220.79 1284.17
4176.45 1026.97 1001.21 1341.25 1292.17
4179.36 1027.07 1003.64 1314.47 1296.84
4182.27 956.871 1009.47 1234.78 1295.26
4185.18 1044.47 1003.34 1336.52 1298.42
4188.09 1008.69 1027.8 1323.95 1334.59
4191 1030.24 1002.8 1343.29 1310.8
4193.91 969.484 993.506 1265.17 1293.1
4196.82 980.797 989.407 1270.83 1279.44
4199.72 1017.94 1005.38 1302.31 1284.72
4202.63 1017.4 1033.8 1281.01 1314.15
4205.54 1066.07 1068.17 1359.13 1359.63
4208.45 1121.03 1107.11 1438.76 1412.25
4211.36 1134.22 1130.78 1438.85 1442.98
4214.27 1137.09 1109.46 1451.34 1418.6
4217.18 1057.08 1086.88 1365.6 1400
4220.09 1066.46 1037.55 1383.06 1342.73
4222.99 989.107 1018.48 1279.53 1311.4
4225.9 999.88 1031.55 1271.62 1320.76
4228.81 1105.67 1056.97 1411.11 1361.34
4231.72 1065.37 1080.38 1401.29 1394.43
4234.63 1070.09 1091.17 1370.89 1399.8
4237.54 1138.06 1109.03 1427.2 1409.04
4240.45 1118.93 1118.15 1429.03 1430.17
4243.35 1097.45 1112.77 1434.28 1438.3
4246.26 1121.93 1102.67 1451.59 1434.63
4249.17 1088.63 1102.16 1418.04 1424.21
4252.08 1095.92 1107.65 1403.01 1432.64
4254.99 1138.39 1119.11 1476.86 1443.69
4257.9 1123.02 1131.95 1451.19 1458.76
4260.81 1134.45 1141.78 1448.22 1468.07
4263.71 1167.86 1126.61 1504.81 1455.88
4266.62 1077.5 1103.7 1414.61 1429.81
4269.53 1065.72 1086.25 1370 1404.05
4272.44 1115.53 1091.66 1427.53 1399.23
4275.35 1093.74 1128.64 1400.15 1438.27
4278.26 1176.67 1137.08 1487.14 1444.35
4281.16 1140.82 1160.32 1445.76 1468.11
4284.07 1163.46 1131.94 1471.43 1444.42
4286.98 1091.54 1114.22 1416.07 1424.44
4289.89 1087.66 1078.29 1385.81 1383.5
4292.8 1055.67 1050.83 1348.62 1343.27
4295.71 1009.17 990.616 1295.38 1270.28
4298.61 907.011 948.57 1166.84 1224.61
4301.52 929.526 901.418 1211.6 1158.36
4304.43 867.716 893.224 1096.63 1150.04
4307.34 882.431 910.717 1141.89 1157.28
4310.25 982.003 1008.61 1233.33 1280.37
4313.15 1161.39 1115.51 1465.88 1411.85
4316.06 1203.15 1198 1536.34 1530.11
4318.97 1229.47 1200.77 1588.09 1539.57
4321.88 1169.71 1193.07 1494.26 1523.34
4324.79 1180.03 1220.62 1487.68 1548.03
4327.69 1312.11 1286.95 1662.15 1624.08
4330.6 1368.71 1325.27 1722.4 1680.98
4333.51 1295 1305.98 1658.4 1656.04
4336.42 1254.25 1267.66 1587.31 1620.65
4339.33 1253.74 1277.56 1616.24 1627.73
4342.23 1324.7 1327.09 1679.63 1698.67
4345.14 1402.82 1368.21 1800.13 1738.9
4348.05 1377.12 1389.18 1736.94 1769.83
4350.96 1387.59 1404.28 1772.43 1776.15
4353.87 1448.14 1408.74 1819.07 1779.56
4356.77 1390.49 1413.09 1747.18 1786.27
4359.68 1400.66 1442.12 1792.55 1825.51
4362.59 1535.21 1478.48 1936.81 1875.49
4365.5 1499.56 1504.35 1897.1 1900.19
4368.4 1478.29 1493.22 1866.65 1893.59
4371.31 1501.81 1473.53 1917.03 1870.79
4374.22 1440.51 1454.62 1828.7 1844.63
4377.13 1421.53 1406.59 1788.16 1785.57
4380.03 1357.74 1363.62 1739.84 1727.03
4382.94 1311.58 1353.9 1653.09 1722.53
4385.85 1392.4 1345.37 1774.64 1707.84
4388.76 1332.12 1380.83 1695.78 1755.14
4391.66 1417.97 1402.81 1795 1783.67
4394.57 1458.34 1437.72 1860.22 1825.91
4397.48 1436.85 1437.5 1822.52 1834.7
4400.39 1417.3 1422.6 1821.38 1817.02
4403.29 1413.67 1445.18 1807.15 1839.35
4406.2 1504.58 1483.72 1889.52 1872.47
4409.11 1532.93 1516.1 1920.72 1898.32
4412.02 1510.79 1540.26 1884.7 1937.24
4414.92 1577.07 1564.5 2006.3 1976.07
4417.83 1605.65 1590.64 2037.22 2031.89
4420.74 1589.19 1611.16 2052.15 2066.07
4423.64 1638.62 1619.43 2108.86 2085.45
4426.55 1630.46 1607.77 2095.34 2069.18
4429.46 1554.21 1605.6 2003.34 2072.57
4432.36 1632.12 1625.07 2119.02 2097.32
4435.27 1688.89 1656.16 2169.59 2132.46
4438.18 1647.48 1660.47 2108.78 2135.28
4441.09 1645.04 1651.26 2127.48 2133.12
4443.99 1661.27 1678.63 2163.09 2169.85
4446.9 1729.57 1703.83 2218.99 2198.65
4449.81 1720.65 1698.16 2213.88 2175.33
4452.71 1644.25 1650.09 2093.12 2115.29
4455.62 1585.35 1621.3 2038.86 2064.64
4458.53 1634.29 1632.84 2061.95 2086.15
4461.43 1678.87 1668.03 2157.65 2127.06
4464.34 1690.93 1696.45 2161.6 2165.44
4467.25 1719.54 1724.23 2177.09 2197.35
4470.15 1762.21 1748.72 2253.35 2233.93
4473.06 1764.4 1801.15 2271.35 2308.11
4475.97 1876.84 1812.15 2399.62 2315.82
4478.87 1795.2 1825.52 2276.48 2332.83
4481.78 1804.54 1811.24 2322.38 2318.09
4484.69 1833.97 1815.82 2355.41 2331.21
4487.59 1808.95 1824.49 2315.84 2335.79
4490.5 1830.56 1850.33 2336.13 2369.07
4493.41 1911.47 1881.96 2455.23 2398.74
4496.31 1903.84 1908.2 2404.87 2418.74
4499.22 1909.3 1947.76 2396.14 2460.07
4502.12 2030.15 2009.41 2579.21 2539.19
4505.03 2088.8 2067.42 2642.22 2635.23
4507.94 2083.33 2071.83 2684.25 2638.07
4510.84 2043.37 2036.76 2587.73 2604.85
4513.75 1983.59 1987.4 2542.56 2542.12
4516.65 1935.25 1985.69 2496.06 2549.92
4519.56 2038.24 1974.35 2611.13 2527.15
4522.47 1949.57 1930.61 2474.26 2462.61
4525.37 1804.02 1849.75 2302.45 2354.08
4528.28 1795.66 1823.55 2285.53 2319.29
4531.18 1870.98 1861.9 2369.91 2367.79
4534.09 1919.06 1912 2447.93 2421.56
4537 1945.97 1926.45 2446.85 2434.09
4539.9 1914.33 1943.76 2407.48 2448.81
4542.81 1970.97 1929.29 2492.11 2448.73
4545.71 1902.57 1955.02 2446.6 2484.36
4548.62 1991.53 1963.21 2514.36 2496.55
4551.52 1995.54 2004.51 2528.69 2537.12
4554.43 2026.46 2029.81 2568.31 2564.56
4557.34 2067.42 2069.94 2596.7 2616.36
4560.24 2115.92 2110.51 2684.06 2681.41
4563.15 2148.2 2132.57 2763.48 2722.46
4566.05 2133.58 2128.84 2719.84 2724.19
4568.96 2104.75 2117.22 2689.25 2707.5
4571.86 2113.34 2163.04 2713.42 2763.11
4574.77 2271.04 2178.35 2886.66 2777.52
4577.67 2150.68 2147.36 2732.48 2725.4
4580.58 2020.37 2062.11 2557.05 2614.93
4583.48 2015.28 2072.17 2555.26 2625.24
4586.39 2180.86 2112.88 2763.42 2682.67
4589.29 2142.49 2125.35 2729.33 2699.29
4592.2 2052.69 2124.41 2605.14 2698.32
4595.1 2178.04 2117.37 2760.51 2690.05
4598.01 2121.37 2167.58 2704.52 2764.03
4600.91 2203.32 2171.52 2827.07 2762.37
4603.82 2189.86 2225.55 2755.53 2823.28
4606.72 2283.46 2252.85 2887.23 2845.46
4609.63 2285.24 2293.61 2893.63 2910.67
4612.53 2312.15 2292.97 2951.16 2913.15
4615.44 2281.53 2276.68 2894.66 2892.99
4618.34 2236.37 2257.53 2833.16 2879.91
4621.25 2254.68 2280.28 2911.9 2906.14
4624.15 2349.78 2331.36 2973.36 2969.48
4627.06 2389.61 2342.36 3023.19 2972.28
4629.96 2287.7 2307.84 2920.3 2931.49
4632.87 2246.2 2278.79 2850.97 2899.13
4635.77 2302.47 2275.68 2926.11 2894.38
4638.67 2278.36 2270.54 2906.05 2900.93
4641.58 2230.78 2256.77 2870.62 2890.05
4644.48 2261.16 2229.47 2893.47 2848.05
4647.39 2196.47 2233.89 2780.05 2851.35
4650.29 2244.05 2236.43 2880.53 2850.4
4653.2 2268.79 2285.74 2890.61 2914.83
4656.1 2344.38 2303.72 2973.34 2934.76
4659 2297.98 2309.97 2940.35 2945.79
4661.91 2287.55 2262.54 2923.69 2889.44
4664.81 2202.07 2254.02 2804.27 2886.24
4667.72 2272.45 2240.61 2930.76 2858.52
4670.62 2247.32 2261.99 2840.54 2878.05
4673.52 2266.21 2277.43 2862.85 2887.58
4676.43 2318.77 2293.77 2959.36 2917.65
4679.33 2296.35 2323.5 2930.73 2965.1
4682.23 2355.4 2295.07 3005.2 2943.46
4685.14 2233.47 2276.45 2894.45 2927.52
4688.04 2240.48 2292 2882.89 2938.16
4690.94 2402.06 2334.63 3037.12 2968.73
4693.85 2361.35 2385.41 2986.17 3024.06
4696.75 2392.83 2327.14 3048.89 2971.18
4699.66 2227.23 2296.37 2878.47 2955.61
4702.56 2269.04 2252.89 2939.47 2901.93
4705.46 2262.4 2282.34 2887.86 2924.17
4708.36 2315.57 2327.91 2945.18 2974.19
4711.27 2405.76 2400.15 3089.52 3070.93
4714.17 2479.12 2441.27 3178.08 3127.61
4717.07 2438.93 2464.46 3115.23 3159.93
4719.98 2475.34 2483.01 3186.49 3179.12
4722.88 2534.77 2493.28 3235.63 3196.12
4725.78 2469.72 2444.34 3166.23 3125.98
4728.69 2328.53 2386.68 2976.09 3056.8
4731.59 2361.78 2338.31 3028.09 3001.41
4734.49 2324.62 2372.51 3000.04 3049.05
4737.39 2431.14 2410.26 3119.03 3100.59
4740.3 2475.02 2452.31 3182.71 3155.62
4743.2 2450.77 2514.59 3165.13 3230.67
4746.1 2617.99 2541.56 3344.16 3257.83
4749 2555.91 2535.66 3264.18 3255.98
4751.91 2433.08 2498.16 3159.61 3213.19
4754.81 2505.5 2478.03 3215.79 3184.22
4757.71 2495.5 2496.4 3177.28 3187.86
4760.61 2488.2 2484.69 3170.52 3168.69
4763.52 2470.37 2465.6 3158.28 3151.38
4766.42 2438.24 2485.56 3125.33 3181.51
4769.32 2548.08 2520.32 3260.91 3211.09
4772.22 2574.65 2594.87 3247.02 3291.34
4775.13 2661.89 2619.95 3366.08 3309.84
4778.03 2623.31 2608.66 3316.42 3304.03
4780.93 2540.79 2597.68 3229.57 3302.16
4783.83 2628.96 2594.42 3360.5 3300.74
4786.73 2613.52 2607.25 3312.15 3316.52
4789.63 2579.27 2601.12 3276.91 3290.03
4792.54 2610.58 2603.34 3281.02 3294.9
4795.44 2620.17 2616.88 3326.75 3312.81
4798.34 2619.88 2610.02 3330.66 3323.77
4801.24 2590.01 2603.18 3313.9 3305.95
4804.14 2599.66 2623.36 3273.28 3337.43
4807.04 2680.4 2633.59 3425.12 3349.5
4809.95 2620.72 2654.57 3350.09 3393.58
4812.85 2662.61 2648.7 3405.51 3380.13
4815.75 2662.79 2666.07 3384.77 3405
4818.65 2672.83 2679.99 3424.72 3414.68
4821.55 2704.35 2683.16 3434.55 3422.54
4824.45 2672.32 2642.97 3408.35 3380.59
4827.35 2552.23 2623.55 3298.88 3359.55
4830.25 2646.1 2618.35 3371.41 3353.43
4833.15 2656.72 2660.11 3390.01 3391.33
4836.06 2677.51 2655.32 3412.57 3382.29
4838.96 2631.72 2622.88 3344.3 3357.97
4841.86 2559.42 2595.68 3317.05 3325.43
4844.76 2595.9 2584.66 3314.95 3326.4
4847.66 2598.67 2589.3 3347.19 3315.39
4850.56 2573.32 2540.49 3284.02 3250.45
4853.46 2449.49 2450.69 3120.15 3138.33
4856.36 2329.26 2318.93 3010.83 2972.85
4859.26 2178.06 2280.34 2787.58 2910.29
4862.16 2333.7 2295.94 2932.47 2910.47
4865.06 2376.06 2322.03 3011.37 2934.09
4867.96 2256.33 2365.23 2858.42 2990.32
4870.86 2463.31 2390.74 3101.18 3028.37
4873.76 2452.57 2466.08 3125.5 3128.52
4876.66 2482.35 2482.06 3158.88 3155.74
4879.56 2511.25 2508.33 3182.84 3179.16
4882.46 2531.4 2518.59 3195.76 3186.32
4885.36 2513.11 2505.13 3180.37 3179.15
4888.26 2470.9 2499.03 3161.32 3177.72
4891.16 2513.09 2559.54 3191.47 3262.79
4894.06 2694.62 2639 3435.58 3355.13
4896.96 2709.27 2747.58 3438.33 3482.66
4899.86 2838.83 2751.8 3574.07 3479.73
4902.76 2707.29 2734.6 3426.78 3459.15
4905.66 2657.67 2670.36 3376.59 3402.69
4908.56 2646.11 2668.43 3404.71 3402.77
4911.46 2701.51 2679.39 3427 3427.21
4914.36 2690.54 2649.99 3449.9 3379.68
4917.26 2557.93 2573.73 3262.14 3298.3
4920.15 2472.71 2548.3 3182.86 3259.07
4923.05 2614.26 2595.09 3332.2 3315.69
4925.95 2698.31 2710.6 3432.03 3451.04
4928.85 2819.22 2784.71 3588.89 3529.52
4931.75 2836.59 2787.81 3567.63 3545.6
4934.65 2707.61 2730.35 3480.28 3478.09
4937.55 2646.85 2720.73 3386.35 3483.49
4940.45 2807.74 2780 3583.83 3553.34
4943.35 2885.41 2876.33 3689.82 3667.17
4946.24 2935.84 2895.29 3727.87 3684.69
4949.14 2864.62 2849.67 3636.38 3630.24
4952.04 2748.54 2774.59 3526.47 3547.89
4954.94 2710.6 2757.22 3480.8 3536.58
4957.84 2812.52 2771.5 3602.46 3555.03
4960.74 2791.39 2833.05 3581.82 3625.27
4963.63 2895.23 2851.41 3691.52 3654.11
4966.53 2867.6 2885.93 3688.99 3698.45
4969.43 2894.95 2871.88 3714.84 3679.8
4972.33 2853.08 2925.13 3635.57 3737.17
4975.23 3027.37 2917.79 3861.12 3720.93
4978.12 2872.92 2865.3 3666.1 3668.73
4981.02 2695.61 2757.34 3478.96 3541.93
4983.92 2703.49 2741.92 3480.71 3530.41
4986.82 2826.66 2801.04 3631.55 3600.58
4989.71 2872.95 2888.46 3689.48 3706.53
4992.61 2965.75 2899.66 3798.56 3736.45
4995.51 2860.27 2918.52 3721.31 3756.29
4998.41 2929.55 2884.75 3748.99 3715.79
5001.3 2864.42 2830.53 3677.07 3628.76
5004.2 2697.63 2793.15 3460.24 3581.16
5007.1 2817.4 2758.52 3606.18 3540.62
5009.99 2760.52 2766.24 3555.45 3551.42
5012.89 2720.8 2755.35 3492.63 3547.03
5015.79 2784.73 2770.68 3593 3558.13
5018.69 2806.51 2825.11 3588.76 3623.16
5021.58 2884.09 2825.83 3687.71 3621.26
5024.48 2786.9 2858.28 3587.31 3680.11
5027.38 2903.86 2907.62 3765.3 3741.11
5030.27 3032.11 2943.62 3870.72 3783.47
5033.17 2894.88 2937.83 3714.39 3757.4
5036.07 2886.48 2862.85 3687.08 3660.72
5038.96 2807.18 2853.98 3580.68 3655.25
5041.86 2868.28 2846.64 3698 3655.71
5044.75 2864.45 2880.64 3688.46 3705.2
5047.65 2909.2 2930.93 3729.14 3761.86
5050.55 3019.16 2993.94 3867.97 3834.46
5053.44 3053.47 3038.41 3906.27 3892.27
5056.34 3042.62 3092.88 3902.56 3961.72
5059.23 3182.56 3117.54 4076.32 4002.08
5062.13 3127.46 3105.98 4027.38 3979.23
5065.03 3007.94 3106.12 3833.98 3977.09
5067.92 3182.96 3097.53 4069.9 3955.73
5070.82 3101.69 3107.67 3963.31 3992.41
5073.71 3038.37 3038.28 3944.01 3911.54
5076.61 2974.78 3018.88 3827.31 3888.73
5079.5 3043.49 2979.08 3894.88 3820.65
5082.4 2918.96 2981.99 3739.77 3821.22
5085.29 2983.51 3000.55 3829.02 3846.82
5088.19 3099.17 3054.25 3971.67 3924.37
5091.08 3080.07 3079.83 3972.42 3967.53
5093.98 3060.25 3049.77 3958.5 3933.21
5096.87 3009 3056.65 3868.71 3943.77
5099.77 3100.7 3062.82 4004.1 3940.86
5102.66 3078.77 3119.19 3949.76 4011.59
5105.56 3178.11 3120.38 4080.92 4009.5
5108.45 3104.25 3133.3 3997.82 4025.37
5111.35 3117.54 3160.21 3997.38 4056.61
5114.24 3258.85 3149 4174.63 4035.46
5117.14 3070.6 3162.75 3934.36 4059.15
5120.03 3158.8 3105.23 4068.46 3985.63
5122.92 3086.28 3078.98 3954.06 3962.89
5125.82 2991.85 3043.9 3866.15 3924.94
5128.71 3053.56 3035.5 3954.61 3903.84
5131.61 3061.1 3080.29 3890.77 3964.26
5134.5 3126.2 3061.34 4047.39 3940.45
5137.39 2996.73 3034.42 3883.17 3925.72
5140.29 2980.32 2961.36 3846.59 3829.59
5143.18 2907.02 3007.04 3759.01 3891.95
5146.07 3133.77 3053.66 4070.25 3950.94
5148.97 3120.19 3124.14 4023.57 4036.57
5151.86 3118.47 3120.76 4015.88 4031.75
5154.75 3123.61 3151.01 4055.81 4054.67
5157.65 3210.97 3160.1 4092.32 4062.06
5160.54 3145.72 3083.33 4038.06 3946.82
5163.43 2893.31 2884.82 3710.08 3716.82
5166.33 2615.42 2687.61 3402.32 3486.58
5169.22 2554.11 2581.05 3347.36 3378.95
5172.11 2573.61 2650.84 3387.19 3469.19
5175.01 2824.81 2761.58 3673.03 3584.19
5177.9 2886.31 2783.92 3692.34 3597.37
5180.79 2640.65 2736.17 3426.75 3529.4
5183.68 2681.54 2717.59 3469.1 3523.82
5186.58 2830.59 2802.06 3675.61 3622.49
5189.47 2894.06 2903.29 3722.76 3751.39
5192.36 2985.23 2975.86 3855.81 3854.97
5195.25 3048.31 3029.43 3986.34 3927.46
5198.15 3054.75 3095.6 3940.23 4013.51
5201.04 3183.75 3114.45 4113.97 4002.49
5203.93 3104.86 3087.64 3953.28 3978.15
5206.82 2974.3 3085.34 3867.19 3974.09
5209.71 3176.85 3090.58 4101.81 4014.93
5212.61 3120.59 3120.81 4075.81 4049.32
5215.5 3064.99 3130.35 3970.35 4070.68
5218.39 3205.48 3166.76 4165.87 4110.65
5221.28 3229.81 3175.81 4195.73 4121.63
5224.17 3092.16 3128.73 4003.28 4069.2
5227.06 3064.22 3073.88 4008.58 4000.17
5229.95 3065.26 3095.83 3988.64 4034.54
5232.85 3158 3170.68 4106.38 4114.27
5235.74 3288.79 3229.88 4247.79 4195.97
5238.63 3242.84 3292.58 4233.74 4280.55
5241.52 3346.1 3298.09 4360.13 4283.52
5244.41 3305.35 3321.73 4256.69 4317.5
5247.3 3313.75 3306.13 4335.69 4310.08
5250.19 3299.28 3297.3 4337.86 4319.45
5253.08 3278.88 3323.65 4284.79 4335.85
5255.97 3392.8 3356.44 4384.89 4355.89
5258.86 3397.65 3320.94 4398 4308.01
5261.75 3172.37 3175.28 4141.14 4131.72
5264.64 2955.83 2983.32 3856.01 3897.97
5267.53 2821.77 2903.04 3696.77 3796.11
5270.42 2931.53 2935.72 3835.56 3835.12
5273.31 3053.85 3029.51 3973.04 3952.33
5276.2 3103.15 3134.51 4048.39 4084.01
5279.09 3246.52 3197.37 4230.59 4148.57
5281.98 3242.44 3270.02 4166.72 4233.34
5284.87 3321.09 3317.79 4302.69 4284.36
5287.76 3389.83 3386.26 4383.67 4388.43
5290.65 3447.86 3426.72 4478.92 4443.21
5293.54 3442.47 3413.07 4467.04 4435.31
5296.43 3348.87 3397.14 4359.96 4412.99
5299.32 3400.08 3410.09 4411.98 4434.76
5302.21 3481.32 3448.94 4532.34 4488.63
5305.1 3465.42 3509.97 4521.55 4564.73
5307.99 3583.17 3557.47 4640.3 4638.04
5310.87 3623.83 3576.25 4752.28 4660.95
5313.76 3521.74 3575.61 4590.26 4662.07
5316.65 3581.26 3486.02 4643.67 4538.64
5319.54 3355.08 3444.07 4381.98 4474.16
5322.43 3395.89 3341.26 4396.83 4357.97
5325.32 3272.82 3281.29 4295.11 4278.68
5328.21 3175.16 3286.55 4144.11 4278.62
5331.09 3411.68 3342.79 4396.65 4339.42
5333.98 3441.52 3413.65 4477.49 4402.97
5336.87 3387.74 3421.74 4334.76 4411.3
5339.76 3435.97 3413.94 4421.66 4388.42
5342.65 3418.1 3441.98 4408.86 4453.23
5345.53 3471.85 3474.14 4529.16 4513.04
5348.42 3532.48 3507.86 4601.1 4580.92
5351.31 3519.25 3558.49 4612.51 4654.12
5354.2 3623.74 3589.69 4748.74 4684.2
5357.08 3626.07 3609.36 4691.34 4682.69
5359.97 3578.27 3570.95 4607.97 4620.61
5362.86 3508.52 3501.8 4562.52 4545.64
5365.75 3418.61 3463.34 4466.44 4509.66
5368.63 3462.89 3448.98 4500.01 4505.18
5371.52 3465.43 3477.08 4549.1 4538.48
5374.41 3502.91 3505.95 4566.32 4565.19
5377.29 3549.51 3546.81 4580.16 4593.88
5380.18 3588.01 3554.35 4635.17 4578.17
5383.07 3525.53 3596.08 4519.19 4649.12
5385.95 3674.7 3574.02 4793.01 4629.56
5388.84 3521.82 3559.95 4576.49 4613.02
5391.73 3483.34 3480.22 4469.57 4510.86
5394.61 3435.51 3431.33 4486.54 4435.39
5397.5 3375.13 3403.86 4350.08 4406.04
5400.38 3400.94 3357.45 4381.5 4322.74
5403.27 3296.28 3330.1 4236.64 4307.32
5406.16 3293.07 3326.52 4303.83 4307.8
5409.04 3390.21 3104.77 4382.94 4363.89
5411.93 2631.04 2904.26 4404.91 4444.57
5414.81 2691.55 2673.57 4545.87 4496.78
5417.7 2698.11 2707.08 4539.57 4528.87
5420.58 2731.6 2713.63 4501.17 4522.42
5423.47 2711.17 2732.13 4526.52 4545.32
5426.35 2753.62 2692.2 4608.25 4504.17
5429.24 2611.81 2692.08 4377.75 4493.11
5432.12 2710.81 2695.47 4493.34 4499.83
5435.01 2763.78 2785.14 4628.41 4641.2
5437.89 2880.84 2835.89 4801.86 4701.42
5440.78 2863.06 2808.93 4673.98 4679.53
5443.66 2682.9 2774.27 4562.77 4598.52
5446.55 2776.86 2745.63 4558.81 4565.76
5449.43 2777.11 2788.15 4575.72 4607.83
5452.32 2810.48 2785.18 4688.96 4647.61
5455.2 2767.95 2826.5 4678.16 4744.07
5458.08 2901.05 2870.89 4865.09 4810.67
5460.97 2943.67 2925.96 4888.77 4885.58
5463.85 2933.17 2938.97 4902.89 4910.94
5466.74 2940.07 2950.86 4941.16 4916.55
5469.62 2979.35 2917.21 4905.6 4862.29
5472.5 2832.22 2874.91 4740.11 4759.7
5475.39 2813.15 2840.91 4633.39 4710.15
5478.27 2877.36 2856.51 4756.96 4687.96
5481.15 2879.01 2883.19 4673.54 4758.1
5484.04 2893.2 2902.35 4843.79 4764.62
5486.92 2934.86 2940.99 4776.52 4851.27
5489.8 2994.91 2957.15 4933.48 4856.48
5492.69 2941.67 2972.55 4859.44 4892.16
5495.57 2981.07 2921.36 4883.55 4831.2
5498.45 2841.33 2921.64 4750.61 4833.21
5501.33 2942.51 2931.57 4865.47 4859.69
5504.22 3010.85 2975.69 4963.01 4894.67
5507.1 2973.71 2948.08 4855.54 4828.6
5509.98 2859.67 2931.5 4667.26 4776.87
5512.86 2961.13 2936.33 4807.8 4767.7
5515.75 2988.2 2984.47 4828.04 4834.7
5518.63 3004.1 3021.45 4868.27 4872.41
5521.51 3072.05 2997.97 4920.92 4868.86
5524.39 2917.76 2989.94 4817.39 4864.8
5527.27 2980 2944.49 4856.09 4810.93
5530.16 2935.73 2975.61 4759.31 4850.31
5533.04 3011.11 3005.97 4935.53 4887.35
5535.92 3071.07 3038.93 4967.2 4934.1
5538.8 3034.61 3067.01 4899.58 4959.68
5541.68 3095.35 3054.11 5012.25 4948.83
5544.56 3032.35 3061 4934.66 4965.64
5547.44 3055.29 3051.73 4950.01 4949.05
5550.32 3067.56 3057 4962.48 4965.3
5553.2 3048.16 3072.87 4983.42 4978.9
5556.09 3102.9 3110.05 4990.79 5016.9
5558.97 3179.1 3107.89 5076.49 4985.07
5561.85 3041.68 3080.46 4887.94 4948.4
5564.73 3020.59 3042.41 4880.77 4888.19
5567.61 3064.96 3019.19 4895.86 4863.02
5570.49 2972 3033.91 4812.43 4893.26
5573.37 3064.76 3032.48 4971.49 4869.91
5576.25 3060.67 3034.25 4825.8 4880.85
5579.13 2977.32 3039.37 4845.25 4878.5
5582.01 3080.12 2959.78 4964.47 4790.45
5584.89 2821.9 2966.96 4561.63 4779.92
5587.77 2998.85 2959.08 4813.65 4760.48
5590.65 3056.48 3016.5 4906.15 4820.84
5593.52 2994.17 3047.54 4742.73 4836.46
5596.4 3091.98 3009.17 4860.5 4778.31
5599.28 2941.36 3078.96 4731.72 4897.24
5602.16 3203.56 3129.03 5099.51 4983.01
5605.04 3242.19 3196.02 5117.8 5082.19
5607.92 3142.33 3183.82 5029.27 5057.38
5610.8 3166.96 3120.29 5025.06 4977.93
5613.68 3051.59 3050.65 4879.47 4866.31
5616.56 2933.41 3012.3 4694.39 4831.94
5619.43 3051.9 3041.86 4921.95 4856.26
5622.31 3140.28 3125.84 4952.44 4959.93
5625.19 3185.34 3103.61 5005.4 4927.62
5628.07 2985.21 3098.37 4825.02 4934.65
5630.95 3124.56 3099.71 4973.53 4933.63
5633.82 3189.37 3160.6 5002.36 4998.6
5636.7 3167.86 3141.39 5019.92 4971.71
5639.58 3066.94 3120.06 4892.87 4961.1
5642.46 3125.37 3110.77 4970.53 4963.68
5645.34 3140 3140.12 5027.66 5013.8
5648.21 3154.99 3148.38 5043.22 5021.73
5651.09 3150.15 3152.88 4994.33 5014.61
5653.97 3153.51 3143.16 5006.29 4994.7
5656.84 3125.82 3131.6 4983.48 4978.37
5659.72 3115.46 3130.16 4945.32 4952.63
5662.6 3149.21 3134.94 4929.08 4963.36
5665.47 3140.14 3185.81 5015.68 5011.93
5668.35 3268.08 3202.67 5091.05 5048.74
5671.23 3199.78 3228.32 5039.48 5047.38
5674.1 3217.1 3259.7 5011.63 5100.57
5676.98 3362.23 3266.26 5250.61 5122.67
5679.86 3219.45 3270.99 5105.78 5130.72
5682.73 3231.3 3187.71 5035.76 5019.19
5685.61 3112.37 3182.98 4916.05 4992.44
5688.48 3205.28 3156.92 5025.51 4977.02
5691.36 3153.13 3204.84 4989.5 5040.95
5694.23 3256.12 3201.32 5107.85 5049.27
5697.11 3194.7 3220.72 5050.46 5059.42
5699.99 3211.35 3171.02 5019.96 4992.6
5702.86 3107.02 3159.44 4907.38 4961.02
5705.74 3159.94 3127.37 4955.72 4899.1
5708.61 3115.14 3121.55 4834.19 4868
5711.49 3089.58 3148.08 4814.08 4904.72
5714.36 3239.51 3170.5 5065.89 4968.51
5717.24 3182.41 3232.43 5025.55 5048.11
5720.11 3275.35 3265.78 5052.88 5069.21
5722.98 3339.58 3316.99 5129.21 5125.3
5725.86 3336.03 3346.52 5193.83 5197.56
5728.73 3363.97 3322.18 5269.65 5192.39
5731.61 3266.53 3307.95 5113.69 5172.44
5734.48 3293.36 3308.77 5133.99 5160.8
5737.36 3366.41 3310.2 5234.72 5158.42
5740.23 3270.83 3319.44 5106.56 5167.76
5743.1 3321.07 3283.93 5162 5098.3
5745.98 3259.88 3280.03 5026.35 5076.53
5748.85 3259.12 3270.1 5041.25 5035.12
5751.72 3291.29 3271.05 5037.77 5044.32
5754.6 3262.74 3263.28 5053.94 5032.82
5757.47 3235.8 3300.32 5006.75 5087.79
5760.34 3402.43 3314.99 5202.68 5107.66
5763.21 3306.73 3344.69 5113.56 5137.15
5766.09 3324.91 3349.55 5095.21 5152.64
5768.96 3417.02 3379.76 5249.14 5200.11
5771.83 3397.34 3366.55 5255.98 5196.07
5774.71 3285.28 3293.97 5083.1 5095.15
5777.58 3199.27 3221.85 4946.37 4970.35
5780.45 3181 3187.82 4881.59 4893.1
5783.32 3183.2 3178.66 4851.33 4878.51
5786.19 3171.79 3205.64 4902.62 4923.58
5789.07 3261.94 3227.4 5016.8 4987.93
5791.94 3248.48 3277.24 5044.37 5041.52
5794.81 3321.31 3304.22 5063.4 5052.2
5797.68 3342.87 3353.71 5048.82 5104.36
5800.55 3396.96 3361.31 5200.87 5123.47
5803.42 3344.11 3389.32 5120.72 5181.78
5806.29 3426.9 3406.09 5223.76 5182.26
5809.16 3447.25 3448.73 5202.32 5231.18
5812.04 3472.04 3432.47 5267.48 5207.78
5814.91 3378.12 3423.92 5153.56 5229.53
5817.78 3421.6 3429.83 5267.56 5245.99
5820.65 3489.77 3491.96 5316.86 5337.98
5823.52 3564.5 3505 5429.52 5355.74
5826.39 3460.74 3527.23 5320.83 5372.38
5829.26 3556.46 3504.39 5366.79 5336.59
5832.13 3495.98 3478.15 5322.14 5287.6
5835 3382.01 3484.23 5173.86 5293.46
5837.87 3574.71 3495.36 5384.37 5314.06
5840.74 3529.35 3513.28 5383.96 5350.56
5843.61 3435.77 3471.47 5283.35 5305.94
5846.48 3449.3 3451.89 5250.52 5278.89
5849.35 3470.61 3415.39 5302.8 5205.14
5852.22 3326.26 3414.5 5062.1 5181.68
5855.08 3446.64 3373.38 5180.14 5107.07
5857.95 3347.24 3358.41 5078.96 5083.97
5860.82 3281.36 3375.85 4992.81 5103.66
5863.69 3498.95 3400.93 5239.19 5122.6
5866.56 3422.5 3511.51 5135.78 5273.5
5869.43 3613.08 3544.14 5445.51 5327.04
5872.3 3596.85 3550.88 5399.82 5337.84
5875.17 3442.7 3496.91 5168.18 5252.47
5878.03 3451.17 3455.47 5189.41 5197.33
5880.9 3472.56 3456.08 5234.41 5220.17
5883.77 3444.52 3358.75 5236.7 5089.95
5886.64 3159.17 3141.27 4798.74 4762.23
5889.5 2820.11 2949.3 4251.26 4448.4
5892.37 2868.62 2881.43 4295.2 4332.51
5895.24 2955.56 2984.56 4451.08 4484.32
5898.11 3129.49 3136.23 4706.69 4699.94
5900.97 3323.63 3292.01 4942.06 4912.43
5903.84 3422.9 3374.47 5088.54 5040.17
5906.71 3376.87 3410.66 5089.91 5110.53
5909.57 3432.22 3407.73 5153.14 5127.95
5912.44 3414.1 3443.3 5140.79 5197.47
5915.31 3483.59 3452.74 5298.49 5199.97
5918.17 3460.53 3455.26 5160.62 5207.12
5921.04 3421.67 3441.74 5162.26 5168.08
5923.91 3443.01 3470.37 5181.35 5243.33
5926.77 3546.43 3491.38 5386.38 5268.46
5929.64 3484.71 3485.98 5237.65 5251.93
5932.5 3426.8 3473.19 5131.77 5202.58
5935.37 3508.06 3482.31 5238.32 5224.36
5938.24 3512.08 3508.79 5302.99 5259.53
5941.1 3506.25 3506.98 5237.29 5264.78
5943.97 3502.61 3510.42 5254.05 5260.36
5946.83 3522.42 3472.31 5289.74 5191.65
5949.7 3391.91 3442.86 5031.16 5139.75
5952.56 3414.26 3439.76 5098.34 5130.71
5955.43 3513.11 3494.24 5262.64 5216.97
5958.29 3555.35 3515.27 5289.93 5255.03
5961.16 3477.34 3524.79 5212.51 5271.99
5964.02 3541.68 3541.9 5313.55 5294.93
5966.88 3606.67 3568.83 5358.73 5335.75
5969.75 3558.15 3533.1 5334.96 5255.73
5972.61 3434.47 3515.7 5073.49 5225.92
5975.48 3554.5 3507.34 5269.31 5166.95
5978.34 3533.06 3503.51 5158.05 5173.48
5981.2 3422.98 3449.85 5093.08 5105.93
5984.07 3393.51 3414.58 5066.65 5067.01
5986.93 3427.23 3444.63 5041.3 5089.08
5989.79 3513.14 3514.03 5159.3 5190.69
5992.66 3601.71 3532.64 5371.48 5227.14
5995.52 3483.08 3543.77 5150.64 5264.12
5998.38 3546.51 3512.85 5270.25 5205.78
6001.25 3508.94 3564.56 5196.45 5270.05
6004.11 3638.22 3554.59 5343.44 5243.52
6006.97 3516.61 3526.01 5190.66 5211.94
6009.83 3423.2 3476.74 5101.72 5152.54
6012.7 3490.4 3449.64 5165.23 5110.47
6015.56 3435.31 3454.55 5064.45 5108.31
6018.42 3437.95 3427.28 5095.24 5082.64
6021.28 3408.59 3418.08 5088.22 5073.25
6024.14 3407.69 3460.38 5036.28 5125.66
6027.01 3564.85 3490.09 5252.49 5162.95
6029.87 3497.74 3528.2 5200.09 5218.93
6032.73 3522.02 3496.95 5204.2 5176.76
6035.59 3471.1 3515.69 5126 5176.9
6038.45 3553.97 3544.57 5200.49 5227.02
6041.31 3608.65 3607.5 5354.55 5291.06
6044.17 3659.88 3640.5 5318.13 5328.06
6047.03 3652.97 3643.59 5311.5 5297.55
6049.89 3617.92 3643.29 5263.03 5306
6052.75 3658.97 3614.9 5343.48 5293.3
6055.61 3567.82 3574.49 5273.39 5239.93
6058.47 3496.67 3550.58 5102.93 5204.34
6061.33 3587.24 3570.98 5236.72 5213.27
6064.19 3629.04 3589.3 5300.15 5259.04
6067.05 3551.62 3598.45 5240.25 5275.09
6069.91 3614.68 3590.8 5284.88 5276.13
6072.77 3606.1 3602.07 5303.25 5286.63
6075.63 3585.44 3601.51 5271.77 5293.43
6078.49 3612.97 3573.14 5305.26 5240.7
6081.35 3521 3548.21 5145.06 5196.79
6084.21 3510.66 3540.98 5140.05 5167.12
6087.07 3591.27 3522.74 5216.24 5146.87
6089.93 3466.29 3532.08 5084.34 5155.74
6092.79 3538.68 3526.31 5166.66 5145.78
6095.64 3573.98 3555.8 5186.33 5188.6
6098.5 3554.74 3560.75 5212.79 5202.92
6101.36 3553.54 3527.63 5209.64 5173.79
6104.22 3474.6 3509.04 5098.94 5140.58
6107.08 3498.99 3529.64 5113.16 5153.13
6109.94 3615.34 3563.94 5247.29 5186.26
6112.79 3577.49 3577.53 5198.34 5194.93
6115.65 3539.77 3526.29 5139.16 5139.79
6118.51 3461.61 3491.66 5081.87 5099.07
6121.36 3473.6 3462.29 5076.19 5064.68
6124.22 3451.66 3473.4 5035.98 5058.8
6127.08 3494.95 3511.68 5064.24 5122.41
6129.94 3588.42 3535.31 5267 5158.01
6132.79 3522.56 3529.25 5142.8 5155.66
6135.65 3476.77 3492.76 5057.19 5077.47
6138.51 3478.95 3505.69 5032.43 5082.26
6141.36 3561.33 3545.36 5157.18 5130.35
6144.22 3595.78 3571.75 5201.44 5161.11
6147.07 3558.15 3588.18 5124.7 5158.01
6149.93 3610.6 3537.41 5147.89 5092.4
6152.79 3443.48 3515.05 5004.61 5059.77
6155.64 3491.09 3412.94 5026.8 4953.9
6158.5 3304.25 3349.24 4830.29 4868.91
6161.35 3252.38 3326.92 4749.65 4833.29
6164.21 3424.11 3328.98 4919.94 4814.53
6167.06 3310.43 3382.99 4774.01 4867.93
6169.92 3414.43 3378.97 4909.84 4872.82
6172.77 3412.05 3431.47 4934.61 4951.53
6175.63 3467.93 3500.78 5010.15 5040.66
6178.48 3622.37 3581.38 5177.22 5132.89
6181.34 3653.83 3606.81 5211.29 5161.77
6184.19 3544.24 3581.89 5096.8 5149.76
6187.04 3547.6 3530.05 5141.19 5089.29
6189.9 3498.3 3504.29 5029.89 5073.16
6192.75 3466.97 3495.37 5048.41 5042.88
6195.61 3520.85 3519.93 5050.34 5090.03
6198.46 3571.97 3561.5 5171.35 5128.13
6201.31 3591.66 3580.66 5162.69 5158.45
6204.17 3578.35 3570.5 5141.29 5137.48
6207.02 3541.47 3544.1 5108.45 5092.72
6209.87 3512.49 3530.83 5028.43 5056.83
6212.73 3538.53 3545.65 5033.61 5062.58
6215.58 3585.92 3527.4 5125.69 5041.46
6218.43 3457.76 3531.28 4965.08 5066.17
6221.28 3550.18 3531.19 5107.75 5071.72
6224.14 3585.63 3521.57 5142.34 5083.5
6226.99 3428.9 3505.87 5000.39 5053.29
6229.84 3503.08 3511.86 5017.15 5054.75
6232.69 3603.6 3562.12 5146.7 5088.7
6235.54 3579.67 3576.97 5102.25 5106.05
6238.39 3547.63 3490.83 5069.19 4973.68
6241.25 3345.19 3467.44 4749.62 4939.86
6244.1 3509.51 3445.21 5000.78 4905.68
6246.95 3480.95 3484.35 4966.65 4976.5
6249.8 3462.58 3470.31 4962.08 4952.14
6252.65 3467.42 3465.5 4927.7 4926.02
6255.5 3466.51 3449.55 4888.29 4886.43
6258.35 3414.72 3423.36 4843.3 4861.33
6261.2 3388.85 3411.14 4852.41 4874.18
6264.05 3429.85 3476.74 4926.83 4976.12
6266.9 3611.54 3523.33 5149.14 5028.79
6269.75 3528.6 3536.77 5010.4 5044.26
6272.6 3470.17 3481.62 4973.24 4960.15
6275.45 3446.1 3405.24 4896.81 4854.09
6278.3 3299.46 3346.87 4692.21 4779.07
6281.15 3295.06 3332.74 4748.18 4754.05
6284 3403.71 3380.35 4821.76 4816.76
6286.85 3442.27 3457.11 4880.35 4894.58
6289.7 3525.35 3466.32 4981.64 4918.13
6292.55 3431.33 3458.69 4892.4 4906.86
6295.4 3419.38 3417.06 4846.55 4845.61
6298.25 3400.47 3400.35 4797.9 4814.48
6301.09 3381.22 3378.52 4799 4791.78
6303.94 3353.87 3396.6 4778.44 4816.76
6306.79 3454.71 3410.85 4872.85 4851.34
6309.64 3423.96 3401.18 4902.72 4829.31
6312.49 3324.88 3359.52 4712.37 4788.92
6315.33 3329.72 3372.72 4751.67 4785.79
6318.18 3463.56 3408.08 4893.33 4851.14
6321.03 3430.95 3446.44 4908.42 4894.03
6323.88 3444.82 3453.54 4880.34 4902.64
6326.72 3484.84 3489.78 4919.17 4932.49
6329.57 3539.68 3503.07 4997.95 4925.87
6332.42 3484.7 3489 4860.5 4888.14
6335.27 3442.61 3459.13 4805.96 4822.95
6338.11 3450.07 3438.73 4802.38 4809.62
6340.96 3423.5 3449.39 4820.53 4844.24
6343.8 3474.61 3464.32 4909.81 4883.34
6346.65 3494.86 3488.83 4919.69 4898.35
6349.5 3497.01 3487.54 4865.56 4879.35
6352.34 3470.74 3489.14 4852.79 4880.21
6355.19 3499.67 3458.79 4922.29 4844.21
6358.03 3405.96 3455.64 4757.55 4842.15
6360.88 3461.29 3484.25 4846.6 4878.15
6363.72 3585.5 3531.55 5030.29 4942.9
6366.57 3547.84 3543.08 4951.8 4954.61
6369.41 3495.9 3523.9 4881.74 4909.83
6372.26 3527.95 3528.87 4895.97 4926.16
6375.1 3562.76 3536.74 5000.77 4935.89
6377.95 3519.52 3545.17 4910.94 4943.42
6380.79 3553.23 3526.77 4918.54 4894.27
6383.64 3507.55 3519.61 4853.32 4885.89
6386.48 3498.04 3496.6 4885.81 4877.97
6389.33 3484.21 3460.91 4894.77 4836.29
6392.17 3400.47 3476.33 4728.29 4857.02
6395.01 3544.32 3434.87 4948.01 4793.4
6397.86 3359.81 3446.85 4703.9 4811.69
6400.7 3436.43 3420.23 4783.17 4785.32
6403.54 3464.45 3438.42 4868.89 4803.9
6406.39 3414.39 3429.44 4759.65 4794.96
6409.23 3409.46 3442.06 4756.34 4786.42
6412.07 3502.31 3462.23 4843.28 4801.21
6414.91 3474.92 3472.7 4804.01 4816.84
6417.76 3440.87 3431.45 4803.25 4766.21
6420.6 3378.55 3438.07 4691.38 4779.63
6423.44 3494.8 3465.4 4844.27 4813.25
6426.28 3522.86 3523.55 4904.11 4889.37
6429.13 3553.01 3498.84 4919.74 4870.97
6431.97 3420.66 3498.28 4789.06 4858.85
6434.81 3521.17 3448.37 4867.74 4793.39
6437.65 3403.27 3426.94 4723.36 4740.31
6440.49 3356.38 3419.47 4629.81 4732.77
6443.33 3498.77 3418.44 4845.13 4727.77
6446.17 3400.19 3453.18 4708.37 4791.48
6449.01 3460.6 3423.13 4820.95 4738.77
6451.86 3408.6 3436.09 4686.99 4751.25
6454.7 3439.06 3431.84 4745.81 4721.91
6457.54 3447.87 3439.64 4732.93 4748.63
6460.38 3431.99 3414.35 4767.16 4714.32
6463.22 3363.19 3435.12 4642.87 4750.3
6466.06 3510.18 3411.22 4840.88 4721.29
6468.9 3360.28 3441.38 4680.12 4741.64
6471.74 3453.68 3421.45 4703.91 4717.98
6474.58 3450.38 3440.93 4769.92 4727.01
6477.41 3418.72 3441.73 4707.21 4738.65
6480.25 3456.1 3442.01 4738.82 4734.92
6483.09 3451.22 3489.48 4758.72 4796.21
6485.93 3561.12 3446.29 4891.09 4733.07
6488.77 3326.52 3380.4 4549.39 4647.07
6491.61 3253.55 3269.21 4500.72 4495.26
6494.45 3227.56 3245.82 4435.67 4464.65
6497.29 3256.37 3311.45 4457.55 4553.09
6500.12 3450.43 3387.15 4766.03 4667.94
6502.96 3454.66 3443.58 4780.25 4760.15
6505.8 3425.67 3458.62 4734.18 4760.84
6508.64 3495.52 3453.24 4768.09 4735.51
6511.47 3438.52 3440.97 4704.26 4717.59
6514.31 3388.86 3442.25 4680.43 4725.31
6517.15 3499.38 3423.44 4791.24 4723.49
6519.99 3382.08 3444.84 4698.79 4734.7
6522.82 3453.07 3422.21 4714.06 4701.09
6525.66 3431.47 3445.13 4690.41 4717.11
6528.5 3450.84 3449.37 4746.85 4715.47
6531.33 3465.81 3430.05 4709.14 4681.71
6534.17 3373.49 3459.64 4589.14 4703.19
6537 3539.62 3459.34 4811.28 4704.08
6539.84 3464.91 3466.71 4711.81 4723.93
6542.68 3395.61 3182.25 4648.69 4658.27
6545.51 2686.24 2930.42 4614.32 4643.44
6548.35 2709.43 2677.49 4667.32 4592.48
6551.18 2636.79 2648.33 4495.81 4549.98
6554.02 2598.77 2566.75 4486.81 4439.62
6556.85 2464.69 2441.72 4336.24 4260.89
6559.69 2261.7 2306.51 3959.61 4012.34
6562.52 2193.13 2276.62 3741.17 3915.1
6565.36 2375.02 2363.56 4044.53 4009.97
6568.19 2522.53 2521.09 4244.22 4248.57
6571.03 2665.72 2630.56 4456.96 4427.85
6573.86 2703.42 2696.38 4582.36 4538.08
6576.69 2719.99 2713.04 4574.93 4598.68
6579.53 2715.7 2724.67 4638.76 4613.6
6582.36 2738.32 2724.24 4627.12 4616.31
6585.19 2718.69 2717.25 4583.06 4575.7
6588.03 2694.73 2723.16 4516.92 4568.64
6590.86 2756.07 2747.64 4605.94 4589.64
6593.69 2792.11 2779.27 4646.07 4633.27
6596.53 2789.63 2793.64 4647.79 4649.03
6599.36 2799.16 2797.12 4653.23 4655.99
6602.19 2802.55 2820.59 4666.95 4702.56
6605.02 2860.06 2817.77 4787.49 4692.11
6607.86 2790.7 2828.42 4621.89 4678.88
6610.69 2834.5 2816.17 4627.27 4651.51
6613.52 2823.29 2826.62 4705.36 4673.28
6616.35 2822.06 2811.72 4687.19 4655.32
6619.18 2789.81 2821.71 4573.41 4674.91
6622.01 2853.26 2836.09 4764.12 4678.2
6624.84 2865.19 2810.89 4697.08 4656.92
6627.68 2714.23 2786.87 4509.56 4586.38
6630.51 2781.2 2769.19 4552.51 4554.72
6633.34 2812.13 2805.15 4602.09 4592.64
6636.17 2822.13 2805.69 4623.33 4599.75
6639 2782.8 2813.53 4573.84 4628.14
6641.83 2835.65 2841.88 4687.25 4665.83
6644.66 2907.2 2865.7 4736.39 4691.93
6647.49 2854.26 2861.1 4652.14 4683.39
6650.32 2821.83 2839.45 4661.63 4676
6653.15 2842.25 2830.85 4714.24 4657.02
6655.98 2828.47 2870.6 4595.18 4719.67
6658.81 2941.09 2870.43 4849.58 4694.97
6661.64 2841.71 2885.18 4640.15 4695.67
6664.46 2872.74 2885 4597.27 4680.75
6667.29 2940.56 2884.24 4804.82 4678.01
6670.12 2839.42 2879.59 4631.93 4689.55
6672.95 2858.79 2840.88 4631.9 4618.58
6675.78 2824.43 2852.44 4591.91 4599.73
6678.61 2874.11 2869.71 4575.38 4608.6
6681.44 2910.58 2885.79 4658.49 4606.84
6684.26 2872.67 2883.7 4586.64 4637.15
6687.09 2867.85 2872.42 4666.32 4640.73
6689.92 2876.74 2878.24 4669.23 4649.2
6692.75 2890.15 2877.36 4612.06 4610.62
6695.57 2865.19 2880.09 4550.56 4589.7
6698.4 2884.92 2872.94 4606.48 4576.89
6701.23 2868.72 2855.78 4573.64 4565.44
6704.05 2813.69 2845.11 4516.2 4534.51
6706.88 2852.91 2852.05 4513.71 4535.96
6709.71 2889.55 2855.19 4577.97 4543.13
6712.53 2823.12 2870.96 4537.71 4540.25
6715.36 2900.2 2884.07 4505.07 4546.96
6718.18 2928.9 2942.23 4598.1 4574.85
6721.01 2997.59 2929.03 4621.37 4564.53
6723.84 2860.6 2929.1 4474.12 4556.01
6726.66 2929.1 2900.14 4572.54 4550.08
6729.49 2910.72 2884.9 4603.56 4552.27
6732.31 2814.87 2897.62 4480.72 4574.59
6735.14 2967.26 2889.2 4639.49 4556.2
6737.96 2885.46 2937.69 4548.4 4603.15
6740.78 2960.36 2904.25 4621.56 4554.89
6743.61 2866.93 2900.69 4494.72 4540.72
6746.43 2874.76 2886.14 4505.88 4516.29
6749.26 2916.74 2856.6 4548.26 4485.85
6752.08 2778.31 2907.17 4403.42 4546.04
6754.9 3026.45 2887.23 4686.46 4518.68
6757.73 2856.93 2920.55 4466.17 4565.04
6760.55 2878.27 2886.43 4542.48 4517.45
6763.38 2924.08 2889.64 4543.7 4497.7
6766.2 2866.56 2905.56 4406.92 4477.88
6769.02 2926.02 2917.07 4483.02 4498.53
6771.84 2958.62 2953.78 4605.66 4550.78
6774.67 2976.69 2977.49 4563.68 4562.96
6777.49 2997.16 2933.77 4519.54 4496.51
6780.31 2827.47 2900.04 4406.3 4445.86
6783.13 2875.51 2883.7 4411.74 4439.95
6785.95 2948.12 2914.92 4501.81 4487.73
6788.78 2921.13 2938.84 4549.63 4527.27
6791.6 2947.28 2924.73 4530.37 4496.92
6794.42 2905.78 2946.72 4410.77 4471.25
6797.24 2987.1 2955.48 4472.61 4466.67
6800.06 2973.57 2958.77 4516.62 4452.28
6802.88 2915.64 2953.76 4367.61 4449.16
6805.7 2972.06 2947.09 4463.26 4427.43
6808.52 2953.59 2954.23 4451.43 4451.84
6811.34 2937.06 2917.81 4440.83 4405.5
6814.16 2862.77 2900.39 4324.25 4382.04
6816.98 2901.33 2905.34 4381.05 4385.84
6819.8 2951.93 2944.23 4452.21 4434.66
6822.62 2979.42 2918.34 4470.71 4429.83
6825.44 2823.68 2895.99 4366.56 4411.68
6828.26 2884.87 2903.71 4397.77 4411.53
6831.08 3002.58 2909.7 4470.27 4373.48
6833.9 2841.66 2953.64 4252.4 4378.44
6836.72 3016.69 2904.09 4412.64 4324.85
6839.54 2853.93 2878.18 4309.51 4298.95
6842.36 2763.93 2822.09 4174.7 4261.16
6845.18 2848.41 2811.75 4299.28 4242.32
6847.99 2822.91 2877.18 4252.99 4307.2
6850.81 2960.21 2852.31 4369.34 4244.21
6853.63 2773.8 2891.88 4110.31 4265.02
6856.45 2941.64 2884.76 4315.4 4272.83
6859.26 2938.83 2886.12 4392.78 4275.95
6862.08 2777.88 2739.54 4119.66 4096.18
6864.9 2501.91 2504.22 3776.1 3771.92
6867.72 2232.88 2307.92 3420.01 3508.1
6870.53 2188.97 2199.49 3328.2 3353.83
6873.35 2176.61 2299.39 3313.28 3435.3
6876.17 2532.57 2397 3664.42 3547.19
6878.98 2481.8 2530.16 3663.87 3695.82
6881.8 2576.1 2545.86 3759.18 3717.57
6884.61 2579.69 2588.89 3729.67 3766.16
6887.43 2610.89 2567.05 3809.63 3748.74
6890.25 2510.57 2587.98 3706.91 3798.97
6893.06 2642.48 2598.18 3880.38 3797.24
6895.88 2641.5 2684.3 3804.43 3905.97
6898.69 2768.91 2689.51 4033.09 3918.87
6901.51 2658.12 2697.75 3919.08 3914.57
6904.32 2666.24 2701.94 3791.56 3898.08
6907.14 2781.47 2702.86 3983.6 3888.84
6909.95 2660.87 2713.9 3891.37 3927.04
6912.76 2699.35 2705.36 3906.14 3923.74
6915.58 2755.85 2728.81 3973.69 3923.4
6918.39 2731.21 2736.43 3890.36 3921.86
6921.21 2722.23 2737.62 3901.53 3931.61
6924.02 2759.4 2757.62 4002.93 3970.62
6926.83 2791.22 2791.15 4007.39 4017.23
6929.65 2822.83 2788.92 4041.37 3987.16
6932.46 2752.7 2768.91 3912.72 3956.53
6935.27 2731.2 2726.71 3915.51 3906.39
6938.08 2696.23 2737.99 3890.93 3963.34
6940.9 2786.54 2715.4 4083.57 3927.34
6943.71 2663.42 2753.35 3807.51 3953.15
6946.52 2810.07 2753.14 3968.36 3914.55
6949.33 2785.94 2795.31 3967.79 3973.16
6952.15 2789.91 2765.64 3983.32 3966.23
6954.96 2721.09 2790.6 3947.57 3998.32
6957.77 2860.8 2809.85 4064.08 4007.89
6960.58 2847.67 2846.27 4012.03 4051.21
6963.39 2830.34 2864.73 4077.51 4071.21
6966.2 2916.18 2841.74 4124.1 4057.26
6969.01 2778.69 2828.62 3970.19 4023.25
6971.82 2791.01 2781.21 3975.45 3967.32
6974.63 2773.93 2776.34 3956.31 3953.46
6977.44 2764.09 2757.26 3928.63 3919.51
6980.25 2733.77 2736.05 3873.58 3899.04
6983.06 2710.29 2767.78 3894.91 3924.74
6985.87 2859.28 2768.86 4005.74 3932.47
6988.68 2737.02 2775.38 3896.75 3919.31
6991.49 2729.85 2706.06 3855.43 3830.71
6994.3 2651.32 2716.63 3739.95 3829.75
6997.11 2768.71 2701.97 3893.88 3796.07
6999.92 2685.87 2723.44 3754.39 3818.97
7002.73 2715.75 2712.72 3808.63 3787.05
7005.54 2736.55 2719.92 3798.12 3794.87
7008.34 2707.47 2713.33 3777.84 3779.54
7011.15 2695.97 2680.24 3762.65 3760.45
7013.96 2637.28 2671.49 3740.85 3751.25
7016.77 2681.23 2666.47 3750.25 3750.06
7019.58 2680.91 2673.98 3759.07 3742.53
7022.38 2659.79 2656.28 3718.27 3712.41
7025.19 2628.14 2650.6 3659.89 3684.88
7028 2663.87 2679.95 3676.5 3726.84
7030.8 2747.83 2690.67 3844.13 3743.25
7033.61 2660.31 2718.46 3709.11 3785.67
7036.42 2747.24 2717.92 3803.75 3786.06
7039.22 2746.21 2764.95 3845.32 3850.82
7042.03 2801.41 2783.65 3903.37 3874.77
7044.84 2803.33 2796.1 3875.61 3867.96
7047.64 2783.56 2753.09 3824.9 3811.9
7050.45 2672.38 2725.59 3735.21 3781.29
7053.25 2720.83 2729.51 3783.78 3784.6
7056.06 2795.31 2734.83 3834.82 3779.6
7058.86 2688.34 2738.96 3720.2 3760.87
7061.67 2733.22 2694.33 3727.59 3699.59
7064.47 2661.42 2705.56 3650.97 3691.25
7067.28 2722.05 2693.67 3695.18 3681.99
7070.08 2697.55 2732.51 3699.81 3727.2
7072.89 2777.92 2745.14 3786.61 3752.71
7075.69 2759.95 2772.32 3771.72 3795.21
7078.49 2779.08 2740.24 3827.31 3757.83
7081.3 2681.68 2738.73 3674.45 3771.44
7084.1 2755.43 2705.31 3812.56 3706.85
7086.9 2678.82 2734.8 3633.54 3745.53
7089.71 2770.16 2748.23 3790.49 3748.65
7092.51 2795.7 2757.22 3821.91 3774.41
7095.31 2705.79 2732.99 3710.82 3729.77
7098.12 2697.47 2704.32 3656.58 3691.51
7100.92 2709.71 2719.3 3707.13 3685.91
7103.72 2750.72 2725.7 3694.02 3686.33
7106.52 2716.68 2708.97 3657.84 3672.34
7109.32 2659.49 2701.57 3665.16 3676.4
7112.13 2728.52 2671.41 3706.19 3630.86
7114.93 2626.21 2679.91 3521.22 3608.41
7117.73 2685 2649.32 3597.81 3559.49
7120.53 2636.75 2669.47 3559.44 3585.19
7123.33 2686.65 2670.24 3598.32 3563.63
7126.13 2687.31 2660.63 3533.12 3530.15
7128.93 2607.93 2671.35 3459 3546.8
7131.73 2718.81 2675.92 3648.27 3562.99
7134.53 2701.02 2706.55 3581.69 3614.76
7137.33 2699.81 2675.23 3614.34 3545.99
7140.13 2624.87 2667.67 3441.93 3536.41
7142.93 2678.34 2622.54 3552.96 3482.33
7145.73 2564.4 2618.56 3452.08 3479.21
7148.53 2612.93 2566.12 3432.6 3424.91
7151.33 2521.05 2592.67 3390.06 3444.52
7154.13 2644.03 2573.66 3510.91 3446.48
7156.93 2555.89 2576.02 3438.46 3436.3
7159.73 2528.13 2511.96 3359.54 3349.29
7162.53 2451.87 2486.96 3249.87 3308.06
7165.32 2480.87 2481.13 3314.75 3291.62
7168.12 2510.64 2471.7 3310.22 3256.77
7170.92 2423.58 2446.81 3145.33 3197.43
7173.72 2406.21 2408.82 3136.74 3151.47
7176.51 2396.67 2377.27 3172.34 3130.29
7179.31 2328.92 2321.85 3081.79 3066.4
7182.11 2239.97 2240.84 2945.08 2975.34
7184.91 2153.64 2200.34 2899.15 2917.76
7187.7 2207.41 2171.27 2909.05 2857.54
7190.5 2152.77 2182.78 2764.43 2847.69
7193.3 2188.15 2161.06 2869.59 2817.48
7196.09 2142.27 2170.68 2818.42 2854.61
7198.89 2181.63 2186.82 2875.81 2877.39
7201.68 2236.56 2235.42 2937.94 2922.58
7204.48 2288.07 2300.7 2954.01 2993.7
7207.27 2377.46 2350.4 3089.15 3047.49
7210.07 2385.67 2360.75 3099.32 3089.68
7212.86 2319.12 2412.74 3080.57 3150.04
7215.66 2533.43 2419.61 3270.23 3138.48
7218.45 2406.26 2449.99 3064.64 3163.3
7221.25 2410.29 2419.1 3155.02 3122.39
7224.04 2440.75 2409.61 3147.49 3131.25
7226.84 2377.79 2420.57 3091.22 3130.45
7229.63 2443.16 2355.05 3152.65 3061.12
7232.42 2244.18 2362.06 2939.48 3051.54
7235.22 2398.85 2323.67 3062.48 2964.13
7238.01 2327.98 2379.09 2890.44 3009.43
7240.8 2410.44 2376.66 3075.36 3026.88
7243.6 2391.55 2420.12 3114.86 3126.63
7246.39 2458.36 2460.79 3189.66 3195.23
7249.18 2532.46 2500.92 3281.18 3226.03
7251.98 2511.94 2485.89 3207.26 3193.83
7254.77 2413.27 2425.9 3093.04 3107.53
7257.56 2352.49 2328.24 3022.28 3001.29
7260.35 2218.95 2299.49 2888.55 2961.36
7263.14 2327.03 2312.58 2973.26 2982.45
7265.94 2391.74 2359.38 3085.54 3018.94
7268.73 2359.35 2356.05 2998.01 3020.25
7271.52 2317.07 2321.73 2977.21 2970.68
7274.31 2288.76 2324.66 2936.82 2955.32
7277.1 2368.16 2358.74 2951.93 2981.21
7279.89 2419.28 2358.7 3054.88 2968.05
7282.68 2288.66 2358.78 2897.32 2969
7285.47 2368.41 2259.5 2954.78 2847.42
7288.26 2121.43 2235.86 2690.16 2807.19
7291.05 2217.73 2200.12 2776.62 2776.31
7293.84 2261.2 2285.03 2862.14 2865.25
7296.63 2376.17 2333.57 2957 2945.43
7299.42 2363.33 2347.56 3017.17 2953.29
7302.21 2303.19 2283.44 2885.71 2864.87
7305 2183.81 2248.42 2691.73 2800.38
7307.79 2258.26 2265.02 2823.69 2801.03
7310.57 2352.99 2293.55 2887.67 2845.15
7313.36 2269.39 2363.93 2824.08 2907.22
7316.15 2469.4 2367.32 3009.92 2930.96
7318.94 2363.17 2394.75 2958.87 2984.92
7321.73 2351.68 2382.73 2985.98 2965.13
7324.51 2433.33 2395.27 2950.53 2987.82
7327.3 2400.8 2413.66 3026.96 3000.59
7330.09 2406.83 2431.88 3024.28 3044.06
7332.88 2488 2479.48 3080.93 3076.98
7335.66 2543.61 2499.23 3125.74 3079.6
7338.45 2466.07 2503.33 3032.12 3066.07
7341.24 2500.31 2467.57 3040.34 3020.7
7344.02 2436.32 2449.93 2989.63 3004.6
7346.81 2413.18 2380.44 2983.85 2942.8
7349.59 2291.83 2356.3 2854.91 2923.81
7352.38 2363.89 2341.57 2932.66 2905.24
7355.16 2368.99 2405.48 2928.15 2954.86
7357.95 2483.55 2422.43 3003.77 2956.81
7360.73 2414.75 2419.76 2938.5 2927.95
7363.52 2360.98 2384.33 2841.59 2896.75
7366.3 2377.26 2378 2910.17 2881.66
7369.09 2395.78 2369.44 2893.23 2891.58
7371.87 2335.28 2382.48 2871.35 2902.99
7374.66 2416.4 2386.86 2944.38 2914.68
7377.44 2408.89 2398.37 2928.3 2920.53
7380.23 2369.81 2354.84 2888.91 2873.13
7383.01 2285.81 2341.44 2802.18 2867.9
7385.79 2368.71 2306.51 2912.62 2835.96
7388.58 2265.01 2304.61 2793.07 2832.79
7391.36 2280.12 2309.27 2792.67 2816.56
7394.14 2382.68 2343.73 2863.94 2822.62
7396.92 2368.39 2384.71 2811.26 2855.06
7399.71 2403.05 2384.42 2889.98 2845.63
7402.49 2381.82 2349.53 2835.66 2802.76
7405.27 2263.71 2314.22 2682.64 2785.11
7408.05 2297.12 2256.9 2837.02 2741.82
7410.83 2209.87 2278.3 2705.81 2790.3
7413.61 2327.89 2292.37 2828.08 2797.48
7416.4 2339.34 2317.97 2858.56 2829.48
7419.18 2286.67 2324.78 2801.8 2832.15
7421.96 2348.31 2340.11 2836.09 2840.29
7424.74 2385.34 2379.28 2882.97 2862.02
7427.52 2404.19 2385.56 2866.99 2863.26
7430.3 2367.15 2384.68 2839.83 2848.34
7433.08 2382.7 2362.63 2838.22 2808.58
7435.86 2338.02 2348.77 2747.71 2776.64
7438.64 2325.59 2328.51 2744.01 2745.93
7441.42 2321.92 2324.86 2746.09 2763.15
7444.2 2327.08 2320.09 2799.36 2761.96
7446.98 2311.26 2345.55 2740.43 2781.33
7449.76 2398.3 2367.34 2804.2 2796.13
7452.53 2392.46 2393.28 2843.77 2819.08
7455.31 2389.08 2359.78 2809.27 2808.17
7458.09 2297.8 2323.71 2771.48 2746.1
7460.87 2284.25 2301.79 2657.55 2721.31
7463.65 2323.33 2306.52 2734.89 2693.43
7466.43 2311.99 2319.23 2687.86 2720.31
7469.2 2322.37 2332.42 2738.19 2730.65
7471.98 2362.89 2338.8 2765.9 2754.64
7474.76 2331.14 2357.56 2759.82 2769.62
7477.53 2378.66 2362.26 2783.13 2782.77
7480.31 2376.97 2322.98 2805.36 2737.23
7483.09 2213.31 2314.16 2623.19 2715.14
7485.86 2352.2 2264.44 2716.85 2641.94
7488.64 2227.81 2242.63 2585.78 2612.98
7491.42 2147.87 2207.9 2536.32 2591.38
7494.19 2248.01 2236.12 2652.05 2618.07
7496.97 2312.47 2281.37 2665.83 2661.57
7499.74 2283.62 2296.54 2666.82 2661.44
7502.52 2293.52 2295.21 2651.66 2660.12
7505.29 2308.5 2303.52 2661.9 2666.89
7508.07 2308.55 2125.9 2687.12 2645.75
7510.84 1760.65 1967.76 2588.24 2638.51
7513.62 1834.09 1801.72 2640.18 2639.38
7516.39 1810.42 1829.06 2689.73 2656.32
7519.16 1842.68 1836.48 2639.05 2643.55
7521.94 1856.32 1833.23 2601.86 2616.13
7524.71 1800.69 1848.03 2607.48 2639.44
7527.49 1887.09 1816.61 2708.97 2597.22
7530.26 1762.04 1821.82 2475.21 2578.83
7533.03 1816.32 1775.83 2552.3 2499.2
7535.8 1749.12 1785.88 2470.07 2527.33
7538.58 1792.21 1788.23 2559.6 2530.57
7541.35 1823.36 1813.49 2562.05 2568.67
7544.12 1824.88 1803.59 2584.37 2537.27
7546.89 1762.53 1779.16 2465.4 2493.06
7549.67 1750.08 1751.48 2429.42 2457.95
7552.44 1741.83 1739.72 2479.02 2438.1
7555.21 1727.26 1754.61 2405.86 2466.03
7557.98 1794.75 1770.3 2513.2 2469.03
7560.75 1788.89 1812.65 2488.03 2510.19
7563.52 1854.32 1829.18 2529.35 2510.86
7566.29 1844.31 1834.43 2515.21 2512.11
7569.06 1804.65 1802.31 2491.78 2466.5
7571.83 1757.97 1784.9 2392.5 2432.09
7574.6 1792.09 1780.71 2411.99 2415.68
7577.37 1792.06 1796.01 2442.54 2451
7580.14 1803.89 1777.34 2498.47 2423.73
7582.91 1736.07 1751.43 2330.17 2393.09
7585.68 1714.33 1680.73 2350.63 2310.41
7588.45 1591.79 1586.87 2250.43 2223.24
7591.22 1454.48 1364.18 2068.68 1967.17
7593.99 1046.28 1085.18 1582.41 1595.74
7596.76 754.777 790.359 1136.13 1195.07
7599.52 570.021 610.186 866.683 908.222
7602.29 505.761 521.85 721.859 755.869
7605.06 489.768 507.32 679.065 711.607
7607.83 526.431 569.614 733.896 746.753
7610.6 692.643 719.766 827.297 922.519
7613.36 940.225 953.27 1206.36 1193.11
7616.13 1226.94 1108.04 1545.66 1415.73
7618.9 1156.96 1141.29 1495.16 1499.17
7621.66 1039.96 1059.67 1456.69 1419.24
7624.43 982.094 975.892 1305.86 1331.84
7627.2 905.619 926.754 1232.96 1240.73
7629.96 892.548 909.017 1183.37 1210.93
7632.73 928.883 946.2 1216.46 1230.46
7635.49 1017.17 991.6 1291.56 1275.96
7638.26 1028.75 1030.19 1319.86 1325.42
7641.02 1044.64 1070.92 1364.83 1382.98
7643.79 1139.36 1126.8 1464.23 1452.26
7646.55 1196.38 1212.39 1527.7 1553.28
7649.32 1301.43 1279.84 1667.91 1634.7
7652.08 1341.71 1304.08 1708.5 1668.98
7654.85 1269.1 1319.79 1630.55 1690.36
7657.61 1348.55 1351.57 1732.04 1722.13
7660.38 1437.04 1399.41 1803.8 1796.19
7663.14 1412.63 1426.66 1852.73 1825.62
7665.9 1430.32 1450.79 1820.33 1864.44
7668.67 1509.41 1531 1920.27 1944.46
7671.43 1653.28 1594.45 2092.79 2014.08
7674.19 1620.65 1613.77 2029.16 2042.14
7676.95 1567.38 1625.48 2004.45 2046.75
7679.72 1688.41 1615.24 2106.63 2050.91
7682.48 1589.95 1635.98 2041.64 2043.17
7685.24 1629.58 1625.67 1981.23 2048.63
7688 1657.47 1644.46 2123.01 2081
7690.76 1646.33 1638.68 2138.76 2092.37
7693.52 1612.25 1624.03 2015.34 2061.08
7696.29 1613.51 1631.97 2029.15 2032.77
7699.05 1670.15 1664.55 2053.82 2047.31
7701.81 1709.99 1676.37 2058.96 2070.57
7704.57 1648.97 1678.45 2098.94 2088.06
7707.33 1676.39 1661.31 2106.27 2095.89
7710.09 1658.56 1638.09 2082.46 2043.69
7712.85 1579.31 1652.5 1942.34 2012.94
7715.61 1719.64 1621.44 2014.01 1968.44
7718.37 1565.36 1637.05 1948.96 2017.45
7721.13 1626.16 1620.35 2089.37 2050.67
7723.89 1669.53 1645.33 2113.69 2077.27
7726.65 1640.29 1676.7 2028.74 2077.06
7729.4 1720.27 1684.31 2088.77 2045.85
7732.16 1692.36 1704.75 2020.05 2055.63
7734.92 1701.61 1678.3 2058.08 2028.36
7737.68 1640.92 1638.46 2006.94 2000.99
7740.44 1572.85 1607.36 1937.95 1975.49
7743.19 1608.31 1585.75 1981.57 1939.06
7745.95 1576.1 1629.74 1897.64 1965.86
7748.71 1704.81 1658.02 2018.36 1996.66
7751.47 1693.15 1673.75 2073.97 2051.89
7754.22 1623.3 1663.56 2063.33 2057.06
7756.98 1674.23 1635.49 2033.87 2015.13
7759.74 1608.93 1662.26 1948.19 1996.35
7762.49 1703.61 1669.36 2006.98 2002.56
7765.25 1695.54 1689.62 2052.52 2027.02
7768 1669.72 1662.43 2021.57 2016.53
7770.76 1622.04 1653.25 1975.51 1986.34
7773.52 1667.98 1636.14 1961.93 1951.93
7776.27 1618.4 1631.13 1918.34 1919.96
7779.03 1607.01 1608.71 1879.61 1894.55
7781.78 1600.73 1613.53 1885.71 1918.77
7784.54 1632.87 1631.63 1990.99 1920.45
7787.29 1661.3 1655.35 1884.65 1948.53
7790.04 1671.9 1655.87 1969.94 1920.36
7792.8 1634.4 1641.96 1906.49 1951.91
7795.55 1619.59 1604.45 1979.31 1905.22
7798.31 1559.37 1606.81 1829.86 1902.9
7801.06 1641.47 1627.32 1899.54 1892.91
7803.81 1681.12 1655.08 1949.33 1909.61
7806.56 1642.66 1672.75 1879.97 1917.45
7809.32 1694.47 1659.78 1923.07 1902.9
7812.07 1642.22 1635.35 1905.66 1892.21
7814.82 1569.35 1633.25 1847.9 1881.48
7817.57 1688.17 1616.84 1890.87 1841.19
7820.33 1593.01 1634.27 1784.81 1853.68
7823.08 1621.63 1606.03 1885.37 1841.29
7825.83 1603.44 1587.82 1853.68 1854.98
7828.58 1538.38 1570.31 1825.88 1826.4
7831.33 1569.1 1547.34 1799.63 1792.32
7834.08 1534.53 1569.01 1751.46 1795.74
7836.83 1603.41 1594.06 1836.12 1828.29
7839.58 1644.26 1614.46 1897.29 1848.33
7842.33 1595.7 1594.91 1811.56 1828.97
7845.08 1544.76 1554.3 1778.04 1780.45
7847.83 1522.43 1554.92 1751.76 1775.52
7850.58 1597.57 1572.62 1796.76 1794.29
7853.33 1597.87 1617.12 1834.34 1829.67
7856.08 1655.92 1596.96 1857.9 1812.29
7858.83 1537.1 1594.48 1744.62 1812.94
7861.58 1590.41 1568.01 1836.3 1795.49
7864.33 1576.52 1581.31 1805.54 1794.04
7867.08 1577 1547.17 1740.27 1722.58
7869.82 1487.98 1554.09 1621.93 1692.67
7872.57 1597.29 1548.19 1715.81 1679.48
7875.32 1559.31 1556.73 1700.68 1702.02
7878.07 1513.61 1542.34 1689.55 1686.35
7880.82 1554.09 1537.8 1668.81 1677.32
7883.56 1545.72 1549.84 1673.61 1663.69
7886.31 1549.72 1530.11 1648.65 1649.29
7889.06 1494.89 1499.28 1625.6 1634.15
7891.8 1453.24 1490.9 1628.21 1646.85
7894.55 1524.58 1503.2 1686.74 1654.83
7897.29 1531.78 1542.55 1649.54 1669.11
7900.04 1571.3 1555.07 1671.04 1665.44
7902.79 1562.13 1533.09 1675.73 1650.06
7905.53 1465.85 1534.56 1603.42 1673.23
7908.28 1575.71 1507.35 1740.55 1652.45
7911.02 1480.49 1502.34 1613.38 1624.04
7913.77 1450.81 1473.14 1518.18 1578.47
7916.51 1488.11 1450.83 1603.86 1537.74
7919.26 1413.56 1464.73 1491.19 1571.1
7922 1492.53 1457.11 1618.27 1560.87
7924.74 1465.24 1458.78 1573.16 1577.86
7927.49 1418.56 1457.8 1542.15 1543.01
7930.23 1489.59 1441.61 1513.71 1520.99
7932.97 1416.69 1454.01 1507.11 1517.24
7935.72 1455.76 1433.91 1530.91 1501.92
7938.46 1429.27 1450 1467.73 1514.87
7941.2 1464.95 1444.41 1545.97 1498.11
7943.95 1439 1441.65 1480.62 1506.8
7946.69 1421 1448.01 1493.8 1511.81
7949.43 1484.02 1478.76 1561.02 1538.31
7952.17 1531.25 1485.29 1560.1 1550.69
7954.91 1440.6 1494.07 1530.95 1555.31
7957.65 1510.36 1477.16 1574.87 1523.12
7960.4 1480.52 1483.57 1463.54 1526.57
7963.14 1459.81 1474.6 1541.29 1514
7965.88 1483.47 1476.08 1537.18 1539.79
7968.62 1484.96 1487.63 1540.92 1538.73
7971.36 1494.44 1472.51 1538.1 1534.21
7974.1 1438.12 1463.72 1523.62 1525.15
7976.84 1458.6 1457.01 1513.72 1511.28
7979.58 1474.32 1458.67 1496.5 1506.89
7982.32 1443.08 1451.29 1510.45 1496.17
7985.06 1436.48 1467.78 1481.56 1506.32
7987.8 1523.78 1471.03 1526.96 1485.07
7990.53 1452.84 1459.58 1446.69 1470.49
7993.27 1402.13 1415.4 1437.81 1437.11
7996.01 1391.24 1395.72 1426.83 1435.2
7998.75 1393.79 1383.98 1440.95 1406.62
8001.49 1366.92 1385.81 1352.06 1409.46
8004.23 1396.71 1387.54 1435.36 1405.09
8006.96 1399 1413.24 1427.84 1432.79
8009.7 1444.02 1437.34 1435.16 1458.45
8012.44 1469 1471.95 1512.34 1487.79
8015.17 1502.82 1450.49 1515.87 1468.59
8017.91 1379.64 1403.56 1377.57 1400.98
8020.65 1328.22 1378.18 1309.51 1374.06
8023.38 1426.67 1386.53 1435.09 1358.72
8026.12 1404.69 1396.64 1331.55 1403.96
8028.86 1358.55 1383.95 1445.22 1385.08
8031.59 1388.62 1357.15 1378.47 1382.75
8034.33 1324.27 1374.24 1324.54 1363.5
8037.06 1409.82 1360 1387.48 1348.49
8039.8 1345.92 1354.57 1333.44 1337.7
8042.53 1307.98 1337.3 1292.18 1315.83
8045.27 1357.99 1330.34 1321.86 1308.52
8048 1325.05 1350.22 1311.52 1331.24
8050.73 1367.63 1358.5 1360.32 1342.29
8053.47 1382.83 1368.89 1355.02 1346.5
8056.2 1356.2 1377.66 1324.17 1354.82
8058.94 1393.95 1375.73 1385.29 1346.69
8061.67 1377.04 1389.36 1330.63 1362.33
8064.4 1397.09 1387.55 1371.06 1351.42
8067.13 1388.54 1379.62 1352.56 1348.41
8069.87 1353.22 1374.9 1321.59 1343.26
8072.6 1382.94 1368.56 1355.62 1321.61
8075.33 1369.52 1366.03 1287.62 1315.01
8078.06 1345.63 1341.87 1301.78 1280.7
8080.8 1310.48 1315.37 1252.7 1262.45
8083.53 1290.02 1300 1232.87 1239.52
8086.26 1299.51 1301.94 1232.98 1251.18
8088.99 1316.28 1319.43 1287.69 1261.63
8091.72 1342.51 1326.96 1264.21 1261.58
8094.45 1322.1 1318.31 1232.83 1238.45
8097.18 1290.33 1311.71 1218.3 1238.73
8099.91 1322.69 1325.06 1265.06 1247.16
8102.64 1362.15 1336.26 1258.13 1260.66
8105.37 1323.94 1330.77 1258.8 1264.05
8108.1 1306.22 1306.59 1275.22 1245.09
8110.83 1289.62 1302.32 1201.25 1221.38
8113.56 1311.13 1306.63 1187.67 1202.64
8116.29 1319.14 1312.05 1219.01 1212.19
8119.02 1305.87 1303.53 1229.89 1215.19
8121.75 1285.57 1275.08 1196.65 1198.21
8124.47 1233.79 1268.81 1168.07 1190.11
8127.2 1287.08 1267.15 1205.6 1189.55
8129.93 1280.57 1249.43 1194.98 1163.78
8132.66 1180.65 1228.63 1090.76 1135.46
8135.38 1224.67 1185.34 1120.64 1093.93
8138.11 1150.71 1230.09 1070.38 1123.26
8140.84 1314.88 1199.8 1178.77 1118.09
8143.57 1133.8 1206.39 1105.12 1131.84
8146.29 1170.49 1161.85 1111.64 1092.99
8149.02 1181.26 1177.18 1062.2 1065.83
8151.74 1179.8 1167.36 1023.65 1059.37
8154.47 1141.02 1183.52 1092.27 1087.46
8157.2 1229.74 1157.64 1146.47 1082.11
8159.92 1102.15 1131.5 1007.6 1053.79
8162.65 1062.62 1094.9 1007.29 1016.36
8165.37 1119.92 1093.96 1034.18 1015.96
8168.1 1099.34 1109.11 1006.41 1008.52
8170.82 1108.07 1123.33 984.966 1007.46
8173.55 1162.57 1126.64 1031 1006.84
8176.27 1109.28 1108.18 1004.55 1000.02
8178.99 1052.7 1089.11 964.508 984.984
8181.72 1105.36 1102.84 985.893 993.236
8184.44 1150.46 1122.09 1029.31 1007.83
8187.16 1110.44 1122.83 1008.29 1013.86
8189.89 1107.6 1113.87 1003.99 1009.99
8192.61 1123.57 1104.33 1017.68 1007.74
8195.33 1081.81 1109.29 1001.56 1004.45
8198.05 1122.48 1131.81 994.112 998.242
8200.78 1191.14 1165.88 999.055 1003.09
8203.5 1184.02 1197.72 1016.11 1029.82
8206.22 1217.99 1217.76 1074.31 1070.65
8208.94 1251.28 1228.45 1121.54 1083.02
8211.66 1216.1 1201.43 1053.2 1055.78
8214.38 1136.93 1171.88 992.598 1028.29
8217.1 1162.62 1130.05 1039.06 994.916
8219.83 1090.6 1126.25 953.091 985.322
8222.55 1125.52 1100.85 963.815 955.227
8225.27 1086.42 1050.59 948.773 916.349
8227.99 939.825 998.698 836.459 873.624
8230.71 969.849 969.613 835.64 848.435
8233.42 999.164 1031.37 873.205 885.261
8236.14 1125.1 1096.4 946.938 944.357
8238.86 1164.94 1155.23 1012.93 991.302
8241.58 1175.66 1179.31 1014.04 1018.19
8244.3 1197.32 1189.4 1027.59 1029.15
8247.02 1195.2 1202.89 1045.82 1046.54
8249.74 1216.16 1195.18 1066.22 1036.15
8252.46 1174.19 1180.65 996.405 1026.65
8255.17 1151.62 1145.91 1017.32 994.934
8257.89 1111.93 1136.72 971.073 997.88
8260.61 1146.6 1145.15 1005.24 989.327
8263.32 1176.93 1186.19 991.666 1010.18
8266.04 1235.04 1196.04 1033.62 1015.03
8268.76 1176.16 1164.53 1019.79 1000.29
8271.47 1082.39 1121.17 947.464 978.369
8274.19 1104.95 1072.79 967.853 930.273
8276.91 1031.03 1106.64 875.501 940.402
8279.62 1183.95 1132.16 977.85 947.581
8282.34 1181.51 1159.35 989.392 962.598
8285.05 1112.58 1126.89 920.551 949.033
8287.77 1086.57 1107.87 937.156 929.75
8290.48 1124.46 1112.39 931.543 937.807
8293.2 1126.13 1145.3 944.721 936.437
8295.91 1185.3 1165.25 933.047 986.353
8298.63 1184.32 1166.14 1081.29 1005.44
8301.34 1128.82 1135.72 1001.99 1002.2
8304.05 1094.03 1129.78 923.305 960.833
8306.77 1166.5 1154.17 957.199 960.882
8309.48 1201.99 1174.49 1002.14 978.114
8312.19 1154.99 1174.4 975 994.266
8314.91 1166.22 1150.37 1005.66 979.365
8317.62 1129.89 1134.3 957.437 954.461
8320.33 1106.77 1116.88 900.29 923.753
8323.04 1113.96 1115.43 913.532 915.464
8325.76 1125.56 1114.59 932.569 920.744
8328.47 1104.25 1116.69 916.13 919.307
8331.18 1120.25 1109.41 909.222 914.559
8333.89 1103.72 1102.24 918.324 912.199
8336.6 1082.75 1109.32 909.051 917.367
8339.31 1141.47 1133.27 924.725 900.96
8342.02 1175.57 1147.38 869.105 887.144
8344.73 1125.1 1147.93 867.602 913.017
8347.44 1143.12 1144.93 1002.34 927.479
8350.15 1166.57 1153.16 912.491 945.865
8352.86 1149.79 1062.9 922.76 926.133
8355.57 872.329 977.12 943.148 925.089
8358.28 909.239 907.798 909.358 907.148
8360.99 941.827 934.842 868.937 898.048
8363.7 953.461 971.279 915.848 913.622
8366.41 1018.55 976.265 956.08 934.462
8369.12 956.785 976.022 931.457 937.483
8371.82 952.732 949.167 924.911 931.105
8374.53 937.985 944.199 936.947 933.457
8377.24 941.879 960.601 938.514 947.703
8379.95 1001.94 961.388 967.649 930.846
8382.65 940.344 941.451 886.375 897.789
8385.36 882.07 908.319 839.344 866.882
8388.07 902.542 921.081 874.927 884.419
8390.77 978.63 951.092 938.987 914.155
8393.48 972.103 964.809 928.551 922.136
8396.19 943.692 936.921 898.87 903.533
8398.89 894.969 932.004 883.177 897.207
8401.6 957.351 931.881 909.575 884.237
8404.3 943.323 954.152 859.96 876.389
8407.01 961.782 963.109 859.632 887.52
8409.71 984.221 996.154 942.967 902.449
8412.42 1042.46 998.862 904.749 909.487
8415.12 969.905 1001.74 880.746 880.861
8417.83 992.867 957.42 857.088 878.207
8420.53 909.487 938.129 896.788 885.594
8423.24 912.034 945.204 902.906 907.782
8425.94 1014.09 974.646 923.652 943.889
8428.64 997.812 984.553 1005.11 943.752
8431.35 941.755 976.813 902.496 976.49
8434.05 990.873 956.935 1021.87 950.405
8436.75 938.176 951.267 926.852 932.431
8439.45 924.751 941.497 848.573 883.416
8442.16 961.563 937.725 874.823 874.156
8444.86 926.86 964.452 899.071 870.559
8447.56 1004.93 968.816 837.784 866.554
8450.26 974.656 995.489 862.807 870.477
8452.96 1006.88 987.39 910.84 864.465
8455.66 980.637 991.691 819.747 884.702
8458.37 987.557 1011.88 923.52 881.939
8461.07 1067.43 1027.1 902.55 887.588
8463.77 1026.3 1019.04 836.693 842.975
8466.47 963.378 985.628 789.68 814.263
8469.17 967.201 959.602 816.416 825.414
8471.87 948.227 978.254 870.146 853.932
8474.57 1019.33 978.773 875.234 875.746
8477.26 968.759 991.909 881.859 883.09
8479.96 987.636 977.804 892.177 875.072
8482.66 977.019 1000.26 851.181 882.883
8485.36 1036.13 1000.72 905.291 876.222
8488.06 989.004 1019.14 872.194 899.04
8490.76 1032.29 988.123 919.635 877.665
8493.46 943.074 953.87 841.166 853.451
8496.15 886.247 892.303 799.551 786.74
8498.85 847.588 878.803 719.502 753.899
8501.55 902.576 893.318 742.644 747.946
8504.25 929.79 944.548 781.692 779.571
8506.94 1001.28 978.024 814.377 832.496
8509.64 1003 976.295 901.42 846.991
8512.34 924.604 954.824 825.175 819.174
8515.03 936.865 961.026 730.927 792.372
8517.73 1021.61 982.01 821.012 792.481
8520.42 987.557 992.018 825.502 821.297
8523.12 966.888 994.998 817.377 836.129
8525.81 1030.55 986.817 865.507 830.54
8528.51 963.015 985.51 808.737 824.435
8531.2 962.967 953.333 799.062 799.384
8533.9 934.018 912.295 790.354 779.712
8536.59 839.9 871.415 749.721 744.811
8539.29 840.328 812.469 694.359 691.116
8541.98 757.178 794.24 629.269 641.576
8544.67 785.214 810.304 601.1 642.881
8547.37 888.519 867.678 698.274 692.87
8550.06 929.301 925.813 779.236 771.895
8552.75 959.618 965.266 838.175 810.947
8555.45 1006.88 982.471 815.431 817.939
8558.14 980.914 1003.37 800.21 806.358
8560.83 1022.33 1017.21 803.435 812.632
8563.52 1048.38 1014.52 834.251 813.99
8566.21 972.847 1021.13 804.285 830.764
8568.91 1042.17 1002.19 853.757 824.814
8571.6 991.557 1005.21 816.4 833.341
8574.29 981.893 1001.83 829.867 818.046
8576.98 1032.03 1016.17 807.872 824.244
8579.67 1034.58 1027.63 834.992 830.723
8582.36 1016.3 1011.06 849.304 833.024
8585.05 982.301 1017.27 814.776 821.936
8587.74 1053.2 1022.05 801.728 819.032
8590.43 1030.63 1042.9 840.592 827.56
8593.12 1044.86 1018.01 840.36 826.368
8595.81 978.521 1027.44 798.152 814.712
8598.5 1058.92 1016.12 805.625 803.023
8601.19 1010.91 1027.26 805.292 791.08
8603.87 1011.95 1004.92 762.324 778.581
8606.56 991.893 1005.5 768.128 782.844
8609.25 1012.65 1012.3 818.079 788.899
8611.94 1032.35 1024.46 780.491 808.081
8614.63 1028.38 1027.06 825.673 811.501
8617.31 1020.43 1036.06 828.341 818.832
8620 1059.37 1015.2 802.482 800.951
8622.69 965.795 1035.13 772.031 806.896
8625.37 1080.22 1020.13 846.175 799.782
8628.06 1014.38 1043.87 781.141 808.099
8630.75 1037 1043.42 796.981 789.787
8633.43 1078.88 1047.62 791.238 779.447
8636.12 1026.98 1067.79 750.122 791.726
8638.8 1097.5 1061.66 833.819 810.974
8641.49 1060.51 1058.55 848.98 822.295
8644.17 1017.65 1034.65 784.087 826.913
8646.86 1025.8 1040.23 847.671 798.397
8649.54 1077.25 1057.63 763.433 809.335
8652.23 1069.82 1055.94 816.9 780.906
8654.91 1020.74 1013.4 762.385 792
8657.6 949.648 949.97 796.714 746.289
8660.28 879.518 891.147 679.768 691.441
8662.96 844.273 870.567 597.841 654.6
8665.65 887.91 905.598 686.191 653.841
8668.33 984.61 962.637 677.492 705.211
8671.01 1015.39 995.225 751.949 722.901
8673.69 985.676 998.872 739.261 750.564
8676.38 995.551 1016.18 760.483 756.299
8679.06 1067.31 1023.8 769.154 746.904
8681.74 1008.55 1036.94 711.075 742.231
8684.42 1034.96 1033.03 746.464 734.814
8687.1 1055.58 1042.06 746.904 733.221
8689.78 1035.65 1045.77 706.296 723.046
8692.47 1046.08 1046.91 715.939 713.894
8695.15 1059.01 1055.86 719.446 717.401
8697.83 1062.5 1078 716.818 729.678
8700.51 1112.48 1077.16 752.769 747.685
8703.19 1056.5 1079.65 773.468 752.162
8705.87 1069.97 1079.63 730.249 745.843
8708.55 1112.41 1098.07 733.813 746.967
8711.23 1111.84 1104.11 776.839 753.914
8713.9 1088.07 1091.24 751.092 750.581
8716.58 1073.79 1072.47 723.813 726.229
8719.26 1055.53 1082.04 703.781 717.469
8721.94 1116.79 1088.09 724.812 720.676
8724.62 1091.96 1087.47 733.434 735.628
8727.3 1053.67 1093.63 748.638 736.487
8729.97 1135.25 1066.55 727.39 741.116
8732.65 1010.74 1073.21 747.32 728.166
8735.33 1073.63 1061.47 709.79 723.584
8738 1100.04 1073.77 713.644 691.602
8740.68 1047.64 1100 651.371 701.494
8743.36 1152.32 1090.49 739.468 705.007
8746.03 1071.49 1096.65 724.181 724.383
8748.71 1066.12 1063.84 709.499 712.935
8751.39 1053.89 1057.45 705.125 719.023
8754.06 1052.34 1037.69 742.446 710.509
8756.74 1006.84 1049.91 683.955 710.635
8759.41 1090.57 1041.72 705.503 708.766
8762.09 1027.77 1093.23 736.839 708.802
8764.76 1161.35 1088.76 684.065 667.742
8767.44 1077.15 1102.68 582.321 649.621
8770.11 1069.53 1074.72 682.476 667.472
8772.78 1077.49 1075.87 737.619 728.424
8775.46 1080.58 1085.68 765.178 745.371
8778.13 1098.97 1078.39 733.317 736.336
8780.8 1055.63 1077.01 710.512 688.943
8783.48 1076.43 1055.53 623.001 666.456
8786.15 1034.53 1046.07 665.856 661.078
8788.82 1027.25 1030.69 694.377 679.402
8791.49 1030.3 1018.71 677.972 664.008
8794.17 998.576 1030.75 619.676 643.814
8796.84 1063.37 1043.84 633.793 638.195
8799.51 1069.58 1082.03 661.117 657.308
8802.18 1113.14 1074.78 677.013 668.199
8804.85 1041.62 1060.96 666.469 656.89
8807.52 1028.12 1023.28 627.189 621.271
8810.19 1000.1 1036.29 570.155 613.873
8812.86 1080.66 1032.76 644.276 604.929
8815.53 1017.5 1054.03 600.355 627.103
8818.2 1063.93 1037.46 636.679 616.572
8820.87 1030.94 1058.07 612.684 637.786
8823.54 1079.35 1045.44 663.995 648.194
8826.21 1026.03 1042.74 667.903 638.167
8828.88 1022.85 1040.49 582.604 604.994
8831.55 1072.6 1030.1 564.474 602.142
8834.22 994.864 1052.15 659.346 632.457
8836.89 1088.99 1056.12 673.552 676.677
8839.55 1084.51 1087.6 697.134 676.673
8842.22 1089.29 1064.87 659.332 676.733
8844.89 1020.82 1064.98 673.734 676.662
8847.56 1084.82 1071.73 696.92 676.636
8850.22 1109.54 1104.27 659.255 660.703
8852.89 1118.46 1116.08 625.935 644.778
8855.56 1120.25 1094.9 649.145 626.298
8858.22 1045.98 1072.98 603.815 623.197
8860.89 1052.71 1025.42 616.632 617.598
8863.55 977.573 1024.47 632.346 618.395
8866.22 1043.14 1026.16 606.208 590.094
8868.89 1057.78 1041.34 531.729 557.285
8871.55 1023.1 1038.25 533.918 538.056
8874.22 1033.86 1046.59 548.521 551.581
8876.88 1082.83 1053.58 572.304 586.421
8879.54 1044.06 1043.61 638.438 612.457
8882.21 1003.95 1044.22 626.63 634.355
8884.87 1084.66 1057.99 637.997 585.725
8887.54 1085.37 1072.33 492.549 525.165
8890.2 1046.95 1059.19 444.948 471.015
8892.86 1045.26 1036.76 475.548 479.733
8895.53 1018.08 1028.23 518.703 543.246
8898.19 1021.34 1031.54 635.487 617.766
8900.85 1055.19 1047.4 699.107 659.698
8903.51 1065.66 1049.51 644.499 650.04
8906.18 1027.69 1035.92 606.513 576.191
8908.84 1014.41 1052.2 477.561 553.144
8911.5 1114.52 1076.14 575.359 559.825
8914.16 1099.49 1103.56 626.555 623.08
8916.82 1096.66 1075.26 667.327 639.043
8919.48 1029.64 1053.99 623.249 595.174
8922.14 1035.69 1019.34 494.945 538.366
8924.8 992.7 1009.87 496.903 484.354
8927.46 1001.24 989.952 461.214 499.877
8930.12 975.921 1010.96 541.515 548.169
8932.78 1055.72 1008.74 641.778 591.121
8935.44 994.579 1019.75 590.068 586.51
8938.1 1008.96 1001.36 527.683 572.665
8940.76 1000.54 1004.71 600.242 570.283
8943.42 1004.62 995.072 582.925 551.468
8946.08 980.055 993.434 471.238 510.022
8948.74 995.629 983.702 475.901 466.56
8951.39 975.421 978.532 452.539 477.285
8954.05 964.547 964.396 503.416 500.371
8956.71 953.221 965.769 545.159 499.459
8959.37 979.54 976.629 449.803 477.24
8962.02 997.127 942.521 436.758 413.271
8964.68 850.895 905.461 353.251 418.071
8967.34 868.361 864.407 464.203 425.84
8969.99 873.965 859.113 460.065 465.184
8972.65 835.013 870.826 471.285 469.785
8975.31 903.501 887.926 478.005 469.091
8977.96 925.264 909.762 457.984 444.832
8980.62 900.522 910.739 398.508 434.157
8983.27 906.43 908.077 445.978 430.639
8985.93 917.28 894.179 447.429 442.884
8988.58 858.827 871.065 435.243 420.516
8991.24 837.087 816.02 378.876 382.494
8993.89 752.145 797.233 333.364 361.07
8996.54 802.466 786.58 370.97 375.738
8999.2 805.131 805.887 422.879 406.771
9001.85 810.064 806.944 426.464 380.444
9004.5 805.638 813.311 291.989 365.879
9007.16 824.232 796.397 379.184 342.163
9009.81 759.321 784.887 355.315 401.657
9012.46 771.108 772.063 470.47 394.336
9015.12 785.76 793.605 357.222 413.406
9017.77 823.948 807.568 412.525 395.455
9020.42 812.995 809.734 416.618 403.779
9023.07 792.258 827.066 382.194 382.996
9025.72 875.945 842.131 350.177 369.936
9028.37 858.19 850.07 377.437 366.217
9031.02 816.077 851.417 371.036 371.808
9033.67 879.986 871.696 366.95 378.297
9036.32 919.026 913.46 396.904 408.244
9038.97 941.367 935.185 460.876 420.94
9041.62 945.162 948.579 405.039 426.018
9044.27 959.209 936.249 412.138 422.225
9046.92 904.376 920.496 449.499 412.084
9049.57 897.905 916.693 374.615 398.455
9052.22 947.799 917.572 371.251 382.516
9054.87 907.012 922.181 401.682 378.321
9057.52 911.731 917.154 362.031 402.305
9060.17 932.718 914.51 443.201 411.836
9062.81 899.081 889.435 430.276 433.182
9065.46 836.506 861.612 426.069 415.5
9068.11 849.248 793.51 390.155 381.308
9070.76 694.776 674.371 327.699 311.889
9073.4 479.088 391.288 217.812 181.837
