wavelength spectrum_sum 3smoothed_sum spectrum_optimal 3smoothed_optimal spectrum_snr
3506.69 1800.41 1454.13 1365.55 1126.35 45.272
3509.61 2561.99 2478.45 2013.5 1962.41 54.0171
3512.52 3072.96 2978.04 2508.17 2396.19 59.1486
3515.44 3299.17 3281.35 2666.9 2641.51 61.3099
3518.36 3471.93 3326.61 2749.47 2652.47 62.88
3521.27 3208.73 3342.61 2541.03 2672 60.4457
3524.19 3347.18 3333.31 2725.51 2690.84 61.7436
3527.11 3444.03 3379.49 2805.98 2725.94 62.6767
3530.02 3347.27 3404.25 2646.34 2744.71 61.7531
3532.94 3421.45 3416.8 2781.81 2739.13 62.4061
3535.86 3481.68 3502.49 2789.25 2817.46 63.0309
3538.78 3604.34 3575.56 2881.32 2873.18 64.0011
3541.69 3640.66 3749.05 2948.97 3034.74 64.382
3544.61 4002.16 3896.35 3273.94 3151.29 67.5887
3547.53 4046.24 3988.46 3230.95 3244.1 67.8746
3550.44 3916.99 4028.52 3227.42 3261.67 66.8513
3553.36 4122.33 4023.14 3326.65 3274.9 68.5255
3556.28 4030.1 4060.23 3270.63 3277.53 67.7761
3559.19 4028.27 4061.53 3235.3 3263.65 67.8768
3562.11 4126.22 4025.6 3285.02 3235.76 68.553
3565.03 3922.29 4047.79 3186.97 3273.41 66.8176
3567.94 4094.86 3994.6 3348.24 3272.49 68.3849
3570.86 3966.65 4071.59 3282.27 3354.19 67.1561
3573.78 4153.26 4105.98 3432.06 3399.81 68.7906
3576.69 4198.03 4162.91 3485.11 3454.84 69.1367
3579.61 4137.44 4114.22 3447.36 3402.97 68.655
3582.53 4007.17 4065.58 3276.43 3379.68 67.5064
3585.44 4052.14 4152.8 3415.25 3469.5 67.9489
3588.36 4399.1 4265.65 3716.81 3588.3 70.8174
3591.28 4345.73 4386.61 3632.83 3675.87 70.3825
3594.19 4415 4428.65 3677.98 3701.06 70.915
3597.11 4525.22 4441.86 3792.39 3712.88 71.8543
3600.03 4385.36 4452.93 3668.26 3727.39 70.641
3602.95 4448.21 4457.51 3721.52 3751.92 71.1603
3605.86 4538.96 4555.36 3866 3865.04 71.8842
3608.78 4678.9 4631.41 4007.61 3934.53 72.9604
3611.7 4676.38 4733.8 3929.99 4026.91 72.8799
3614.61 4846.12 4890.74 4143.13 4142.8 74.22
3617.53 5149.71 5032.92 4355.29 4290.02 76.5287
3620.45 5102.95 5253.83 4371.62 4458.06 76.2128
3623.36 5508.84 5310.48 4647.26 4499.95 79.1107
3626.28 5319.65 5219.58 4480.96 4400.75 77.8276
3629.19 4830.25 5164.64 4074.02 4379.15 74.0966
3632.11 5344.01 5300.55 4582.48 4528.64 77.9372
3635.03 5727.4 5602.94 4929.43 4801.9 80.735
3637.94 5737.41 5642.33 4893.77 4840.63 80.7629
3640.86 5462.19 5736.33 4698.7 4929.08 78.8375
3643.78 6009.38 5757.47 5194.78 4982.28 82.7066
3646.69 5800.83 5925.78 5053.36 5127.32 81.2014
3649.61 5967.14 5958.9 5133.83 5156.62 82.3476
3652.53 6108.71 6034.51 5282.67 5201.4 83.4005
3655.44 6027.68 6075.38 5187.7 5241.16 82.741
3658.36 6089.76 6149.47 5253.12 5322.94 83.2268
3661.28 6330.96 6265.01 5528 5433.54 84.8841
3664.19 6374.32 6429.92 5519.51 5611.9 85.1586
3667.11 6584.47 6412.34 5788.2 5576.47 86.5287
3670.03 6278.24 6323.14 5421.7 5491.41 84.509
3672.94 6106.73 6291.83 5264.33 5425.98 83.3876
3675.86 6490.54 6252.41 5591.91 5421.51 85.9374
3678.78 6159.97 6369.82 5408.28 5509.72 83.7491
3681.69 6458.96 6376.08 5528.95 5548.91 85.7095
3684.61 6509.32 6563.76 5709.5 5695.01 86.0314
3687.52 6723 6727.74 5846.59 5864.53 87.4442
3690.44 6950.91 6760.92 6037.5 5880.43 88.9214
3693.36 6608.84 6815.59 5757.22 5941.52 86.6573
3696.27 6887.02 6825.93 6029.83 5968.35 88.5156
3699.19 6981.91 6954.41 6118.01 6060.94 89.0409
3702.11 6994.31 7115.33 6034.97 6186.43 89.1651
3705.02 7369.76 7211.15 6406.32 6250.78 91.6293
3707.94 7269.38 7415.2 6311.06 6461.4 90.9098
3710.85 7606.45 7626.11 6666.81 6653.41 93.0006
3713.77 8002.51 7627.56 6982.35 6634.02 95.4121
3716.69 7273.72 7709.71 6252.91 6710.33 90.9673
3719.6 7852.9 7678.74 6895.74 6708.52 94.4932
3722.52 7909.59 8155.48 6976.9 7201.56 94.8266
3725.44 8703.93 8348.2 7732.04 7337.51 99.4848
3728.35 8431.08 8207.77 7303.6 7214.92 97.8771
3731.27 7488.29 8004.08 6609.11 7031.4 92.2554
3734.18 8092.87 8315.62 7181.48 7370.56 95.9033
3737.1 9365.71 9033.63 8321.08 7984.88 103.251
3740.02 9642.31 9416.65 8452.08 8295.2 104.774
3742.93 9241.92 9067.04 8112.44 7939.05 102.545
3745.85 8316.88 8711.22 7252.64 7706.34 97.2821
3748.76 8574.87 8767.04 7753.94 7780.27 98.726
3751.68 9409.37 9326.73 8334.23 8292.44 103.431
3754.6 9995.97 10049 8789.14 8873.94 106.649
3757.51 10741.5 10455.6 9498.46 9164.72 110.564
3760.43 10629.2 10641.8 9206.56 9333.79 109.955
3763.34 10554.6 10219.4 9296.36 8956.66 109.616
3766.26 9474.49 9840.78 8367.05 8729.09 103.784
3769.18 9493.29 9824.95 8523.84 8769.97 103.872
3772.09 10507.1 10651.7 9419.02 9588.34 109.344
3775.01 11954.6 11849 10822.2 10623.8 116.707
3777.92 13085.4 12672 11630.2 11303.9 122.094
3780.84 12975.9 13300.6 11459.4 11759.8 121.56
3783.75 13840.6 13499.5 12189.8 11988.4 125.569
3786.67 13682 13587.1 12315.9 12089.9 124.819
3789.59 13238.5 13010.3 11763.8 11648.9 122.798
3792.5 12110.5 12095.7 10867 10833.3 117.346
3795.42 10938 11625.5 9868.98 10487.9 111.544
3798.33 11827.9 11969.2 10727.7 10803 115.957
3801.25 13141.6 13052.4 11812.3 11743.9 122.302
3804.16 14187.7 14147.7 12691.6 12654.9 127.064
3807.08 15113.8 15199.3 13460.6 13541.5 131.185
3810 16296.6 16050.5 14472.3 14247.8 136.278
3812.91 16741.2 16822.5 14810.4 14981.9 138.135
3815.83 17429.7 17258.8 15663 15428 140.975
3818.74 17605.3 17220.1 15810.4 15449.1 141.614
3821.66 16625.2 16654.9 14873.8 14942.7 137.628
3824.57 15734.1 15589.4 14143.9 13960.6 133.825
3827.49 14408.8 14386.9 12864 12867.1 128.072
3830.4 13017.7 13182.1 11593.6 11809.6 121.686
3833.32 12119.8 12546.5 10971.4 11346.6 117.381
3836.24 12502.1 12680.3 11474.9 11590.9 119.162
3839.15 13418.9 13884.2 12326.5 12690.9 123.572
3842.07 15731.5 15289.6 14271.3 13905.1 133.807
3844.98 16718.3 16643.8 15117.6 15007.9 137.977
3847.9 17481.7 17599.7 15634.8 15839 141.169
3850.81 18599.2 18623.8 16764.7 16716.3 145.597
3853.73 19790.4 19714.8 17749.4 17738 150.177
3856.64 20754.8 20669 18699.8 18634 153.775
3859.56 21461.9 21142.6 19452.8 19085.4 156.409
3862.47 21211.2 21553.7 19103.5 19436.1 155.474
3865.39 21988 21724.6 19752.2 19560.1 158.312
3868.3 21974.5 21684.7 19824.7 19488.4 158.261
3871.22 21091.5 21125.4 18888.3 19039.7 155.055
3874.13 20310.2 20335.3 18406.2 18334.9 152.115
3877.05 19604.4 19428.6 17710.2 17597 149.463
3879.96 18371.4 18129.9 16674.6 16402.4 144.687
3882.88 16413.9 16431.2 14822.4 14888.4 136.664
3885.79 14508.3 15127 13168 13803.2 128.431
3888.71 14458.7 14706.7 13419.2 13534.8 128.232
3891.62 15153.2 15489.9 14017.3 14338.1 131.274
3894.54 16857.8 16604.1 15577.8 15298.7 138.504
3897.45 17801.2 17894.1 16301 16394.1 142.331
3900.37 19023.2 18913.8 17303.6 17250.6 147.207
3903.28 19916.9 20148 18147.3 18322.1 150.605
3906.2 21504 21573.1 19515.5 19629.8 156.516
3909.11 23298.3 22795.4 21226.7 20722.4 162.936
3912.03 23583.9 23599.4 21425.2 21543.3 163.963
3914.94 23916.1 24074.1 21978 22035.7 165.095
3917.86 24722.3 24857.2 22704 22802.1 167.855
3920.77 25933.1 25667.1 23724.5 23485.2 171.931
3923.69 26345.9 25926.4 24027.1 23621.6 173.282
3926.6 25500.2 24945.9 23113.2 22692.6 170.524
3929.52 22991.6 23740.7 20937.3 21693.6 161.839
3932.43 22730.5 23396.4 21030.1 21508.3 160.896
3935.35 24467.2 24147.8 22557.4 22201.5 166.986
3938.26 25245.6 25128.9 23017 23055.3 169.616
3941.18 25673.8 25355.8 23591.5 23249 171.042
3944.09 25148.1 25280.3 23138.4 23250.6 169.28
3947 25018.9 25071 23021.8 23034.8 168.851
3949.92 25046.1 24968.9 22944 22913.8 168.962
3952.83 24841.6 24910.6 22775.5 22895.3 168.236
3955.75 24843.9 24512.4 22966.3 22525.6 168.247
3958.66 23851.6 23515.2 21834.8 21616.8 164.816
3961.58 21850 21587.3 20049.3 19748 157.764
3964.49 19060.2 19053.6 17359.7 17488.7 147.267
3967.41 16250.6 17391.6 15057 16073.9 135.877
3970.32 16864 17318 15804.9 16178.4 138.481
3973.23 18839.5 18672.4 17673.3 17462.1 146.401
3976.15 20313.9 20356.4 18908.1 18971.2 152.009
3979.06 21915.7 21846 20332.1 20278.9 157.904
3981.98 23308.3 23515.8 21596.5 21806.3 162.875
3984.89 25323.4 25090.8 23490.4 23231 169.844
3987.8 26640.8 26530.3 24606 24563.3 174.192
3990.72 27626.8 27430.3 25593.6 25378.1 177.388
3993.63 28023.5 28358.6 25934.6 26226 178.69
3996.55 29425.6 29190.7 27149.6 26993.1 183.126
3999.46 30122.9 30190 27895 27952.1 185.279
4002.37 31021.4 30902.6 28811.5 28717.3 188.027
4005.29 31563.5 31769.3 29445.5 29567.6 189.668
4008.2 32722.9 32524.8 30445.9 30251 193.122
4011.12 33288 33434.7 30861.6 31083.8 194.799
4014.03 34293.2 34163.4 31943.9 31743.4 197.754
4016.94 34909.1 34479.1 32424.6 32015.7 199.505
4019.86 34234.9 34659.8 31678.5 32156.6 197.601
4022.77 34835.6 34994.8 32366.5 32478.3 199.284
4025.69 35914.1 35065.4 33389.8 32602.2 202.373
4028.6 34446.6 34910.8 32050.3 32527.6 198.148
4031.51 34371.7 34840.6 32142.7 32533.5 197.912
4034.43 35703.3 35399 33407.4 33104.1 201.758
4037.34 36122 35710.1 33762.1 33349.5 202.896
4040.25 35305.1 35478.1 32879 33121.2 200.574
4043.17 35007.2 35313.2 32722.4 33004.8 199.751
4046.08 35627.2 35442.9 33413.1 33193.3 201.508
4048.99 35694.4 35562.7 33444.4 33302.5 201.732
4051.91 35366.3 35675.6 33050.2 33394.5 200.737
4054.82 35966 35805.2 33688.9 33519.4 202.511
4057.74 36083.4 35782.2 33819 33534 202.821
4060.65 35297.1 35688.4 33094 33466.1 200.573
4063.56 35684.6 35417.6 33485.3 33247.3 201.692
4066.48 35271.2 35253.3 33162.5 33062.3 200.475
4069.39 34804 34516.5 32539 32333.6 199.157
4072.3 33474.3 33259.8 31299.3 31113.4 195.346
4075.22 31501.2 32146.6 29501.9 30173.9 189.432
4078.13 31464.3 31588 29720.5 29689.5 189.334
4081.04 31798.6 31691.6 29846.1 29865.4 190.318
4083.95 31812 31908.9 30029.6 30046.4 190.359
4086.87 32116.2 31932.2 30263.5 30107.5 191.253
4089.78 31868.4 31399.3 30029.3 29492.1 190.51
4092.69 30213.3 29702.4 28183.6 27812.5 185.453
4095.61 27025.4 27046 25224.7 25238.8 175.338
4098.52 23899.2 24688.3 22308 23163.4 164.868
4101.43 23140.3 23717.3 21957.4 22429.7 162.192
4104.35 24112.3 24417.6 23023.8 23273.2 165.611
4107.26 26000.4 26020.4 24838.5 24861.1 171.969
4110.17 27948.6 27936.3 26721.2 26680.3 178.299
4113.08 29860 29438.6 28481.1 27994.7 184.354
4116 30507.1 30779.3 28782 29171.2 186.361
4118.91 31970.8 31686.6 30250.4 29987.3 190.808
4121.82 32582 32734 30929.6 30985.3 192.619
4124.73 33649.2 33304.1 31775.8 31545 195.751
4127.65 33681.3 33932.2 31929.5 32173.8 195.869
4130.56 34466.3 34729.2 32816.2 33025.5 198.126
4133.47 36040.1 36187.4 34330.7 34476.7 202.568
4136.39 38055.6 37641.6 36283.3 35815.1 208.233
4139.3 38829.1 38349.8 36831.4 36433.8 210.336
4142.21 38164.8 38763.2 36186.7 36856.9 208.516
4145.12 39295.8 39199.7 37552.4 37289.6 211.591
4148.04 40138.5 39625.1 38129.6 37692.1 213.887
4150.95 39441.1 39829.4 37394.4 37839.2 211.969
4153.86 39908.6 40152.7 37993.5 38255.6 213.244
4156.77 41108.4 40738.1 39378.9 38904 216.422
4159.68 41197.4 41422.9 39339.7 39604.8 216.673
4162.6 41962.8 41838.8 40095.7 39969.3 218.656
4165.51 42356 42137.3 40472.5 40232.6 219.723
4168.42 42092.9 41865.2 40129.8 39960.4 219.033
4171.33 41146.7 41446.5 39278.9 39517.1 216.52
4174.25 41099.9 41067.6 39142.5 39194.3 216.424
4177.16 40956.4 41302.7 39161.4 39464.8 216.012
4180.07 41851.8 41474.7 40090.6 39658.7 218.399
4182.98 41615.9 41821 39724.1 40057.1 217.785
4185.89 41995.4 42073.9 40356.6 40351.3 218.773
4188.8 42610.5 42360.2 40973.2 40668.1 220.359
4191.72 42474.7 42410.9 40674.4 40658.5 219.983
4194.63 42147.4 42154 40327.9 40319.4 219.105
4197.54 41839.7 41868 39955.9 40037.9 218.381
4200.45 41616.9 42044.8 39829.8 40232 217.775
4203.36 42677.8 42743 40910.3 41085.3 220.51
4206.28 43934.3 43873.2 42515.9 42236.3 223.771
4209.19 45007.3 44516.1 43282.9 42874.5 226.481
4212.1 44606.6 44728.6 42824.7 42951.3 225.431
4215.01 44571.9 44837.6 42746.2 43081.4 225.358
4217.92 45334.4 45095.9 43673.2 43279.4 227.336
4220.83 45381.2 44830.5 43418.9 43044.8 227.375
4223.74 43775.8 44596.7 42042.2 42840.9 223.33
4226.66 44633 44741 43061.6 43085.9 225.535
4229.57 45814.2 45182.3 44154 43513.8 228.488
4232.48 45099.7 45160.9 43325.7 43472.6 226.723
4235.39 44569 44881.9 42938.2 43252.1 225.335
4238.3 44976.9 45141 43492.4 43559.4 226.386
4241.21 45877.1 45634.4 44247.6 44028.7 228.638
4244.12 46049.3 45949 44345.9 44328.1 229.076
4247.03 45920.6 46195.3 44390.7 44638 228.768
4249.95 46616.2 46497.8 45177.3 44968.2 230.526
4252.86 46956.5 47057 45336.7 45486.5 231.351
4255.77 47598.2 47242.4 45945.5 45638.8 232.917
4258.68 47172.4 47785.9 45634.2 46244.7 231.898
4261.59 48587 48494.9 47154.2 47044.4 235.31
4264.5 49725.3 48965.3 48344.9 47485.6 238.085
4267.41 48583.7 48580.1 46957.7 47086.4 235.318
4270.32 47431.4 48033.8 45956.5 46569.2 232.481
4273.23 48086.3 48306.1 46793.3 46941.8 234.097
4276.14 49400.7 48950 48075.7 47607.1 237.292
4279.05 49363 49388.9 47952.4 47967.6 237.176
4281.96 49403 49282.8 47874.6 47848.5 237.283
4284.88 49082.6 49134.9 47718.5 47673.3 236.527
4287.79 48919.2 48911.6 47426.8 47463.9 236.154
4290.7 48733.1 48766.6 47246.3 47323.3 235.711
4293.61 48647.4 48210.4 47296.8 46757.5 235.5
4296.52 47250.8 47173.3 45729.5 45800.9 232.027
4299.43 45621.6 46149.7 44376.4 44831.3 228.004
4302.34 45576.6 45587.7 44388.1 44357.4 227.874
4305.25 45564.9 45755.9 44307.6 44553.8 227.854
4308.16 46126.3 46098.8 44965.8 44905.8 229.287
4311.07 46605.1 46556.4 45444 45389 230.446
4313.98 46937.9 47115.7 45757.1 45933.2 231.308
4316.89 47804.2 47426.3 46598.6 46255.4 233.402
4319.8 47536.7 47263.7 46410.7 46098.3 232.748
4322.71 46450.3 46419.2 45285.7 45268.1 230.048
4325.62 45270.6 44986.8 44107.8 43818.1 227.149
4328.53 43239.7 43270.2 42060.8 42087 221.955
4331.44 41300.2 40699.4 40092.3 39468.6 216.826
4334.35 37558.4 37247.2 36252.7 36012.8 206.723
4337.26 32883.1 33727.4 31693.4 32617 193.358
4340.17 30740.6 32019.3 29905 31204.1 186.908
4343.08 32434.1 32732.3 32013.9 32174.8 192.015
4345.99 35022.1 34711.1 34605.5 34288.7 199.567
4348.9 36677.1 36842.5 36246.6 36424.6 204.329
4351.81 38828.3 39094.9 38421.7 38659 210.213
4354.72 41779.1 41326.1 41308.6 40872.8 218.099
4357.63 43371 43524 42887.9 43016 222.255
4360.54 45421.8 45355.1 44851.4 44768.2 227.466
4363.45 47272.5 47219.4 46565.4 46525.2 232.058
4366.35 48963.9 48730.8 48159 47963.7 236.223
4369.26 49956 49849 49166.9 49034.7 238.641
4372.17 50627.1 50664.2 49778.3 49861.6 240.193
4375.08 51409.5 51663 50639.6 50864.8 242.033
4377.99 52952.5 52173.2 52176.5 51345.3 245.679
4380.9 52157.5 52056.1 51219.7 51202.9 243.831
4383.81 51058.1 51808.3 50212.5 50955 241.223
4386.72 52209.1 51761.5 51432.8 50929.5 243.92
4389.63 52017.1 52370.3 51143.2 51548.4 243.533
4392.54 52884.6 52599.4 52069.3 51840.1 245.525
4395.45 52896.4 52881 52308 52151.3 245.486
4398.35 52861.9 53229.9 52076.5 52537.2 245.465
4401.26 53931.3 53623.1 53227.2 52883.7 247.957
4404.17 54076.1 54043.1 53347.3 53322.1 248.254
4407.08 54121.9 54228.9 53391.8 53555.2 248.361
4409.99 54488.7 54241.9 53926.6 53604.5 249.234
4412.9 54115.2 54291.2 53495.1 53707.3 248.326
4415.81 54269.6 54210.9 53700.1 53633.2 248.69
4418.72 54248.1 54678.3 53704.2 54105.4 248.633
4421.62 55517.3 55072.2 54912 54491.9 251.53
4424.53 55451.3 55172.1 54859.4 54551.1 251.398
4427.44 54547.7 54883.7 53882.1 54296.5 249.333
4430.35 54652.1 54698.5 54148.2 54177.2 249.572
4433.26 54895.6 55226.9 54501.5 54828.8 250.141
4436.17 56133.1 55908.8 55836.6 55471.9 252.968
4439.07 56697.6 55985.1 56077.5 55469.2 254.238
4441.98 55124.6 55553.4 54493.5 54993.2 250.623
4444.89 54837.9 54959.1 54408.5 54467.2 249.992
4447.8 54914.8 54812.9 54499.6 54384.2 250.176
4450.71 54685.8 54923.7 54244.6 54471.1 249.643
4453.61 55170.5 54980.3 54669.3 54539 250.739
4456.52 55084.6 55019.3 54703 54580.6 250.573
4459.43 54802.8 54498.3 54369.4 54076.9 249.93
4462.34 53607.6 53986.2 53158.3 53563 247.152
4465.25 53548.3 53468.5 53161.3 53124.6 247.006
4468.15 53249.6 53892 53054.1 53640.2 246.333
4471.06 54878.2 54876.9 54705.2 54725.3 250.099
4473.97 56503.1 55893.6 56416.7 55731 253.801
4476.88 56299.6 55960.5 56071.2 55792.9 253.362
4479.78 55078.8 55605.4 54890.8 55444.3 250.568
4482.69 55437.9 55704.9 55370.8 55583.7 251.345
4485.6 56598 56161.5 56489.5 56079.1 254.007
4488.51 56448.7 56665.6 56376.8 56630.6 253.632
4491.41 56949.9 56963 57025.6 56956.8 254.741
4494.32 57490.2 57483 57468.1 57478.1 255.984
4497.23 58009 57975.9 57940.6 57982.2 257.158
4500.13 58428.6 58876.3 58537.9 58889.6 258.069
4503.04 60191.3 59466.5 60190.3 59495.3 261.987
4505.95 59779.6 60115.3 59757.8 60078.9 261.104
4508.86 60375 60263.4 60288.6 60229.8 262.332
4511.76 60635.6 60356.9 60642.9 60317 262.905
4514.67 60060.1 59859.2 60019.4 59793.6 261.657
4517.58 58881.8 58865.3 58718.4 58814.4 259.079
4520.48 57653.9 57740.9 57705.3 57731.2 256.336
4523.39 56686.8 56957.6 56769.8 57037.6 254.136
4526.3 56532.2 56719.8 56637.5 56798.6 253.824
4529.2 56940.3 57122.4 56988.5 57243.5 254.716
4532.11 57894.7 57660.4 58104.4 57888.4 256.909
4535.02 58146.2 58180.2 58572.3 58437 257.446
4537.92 58499.8 58405.1 58634.3 58738.2 258.204
4540.83 58569.2 58803.7 59008 59094.8 258.363
4543.74 59342.1 58926.8 59642.1 59251.3 260.068
4546.64 58869.1 58654.9 59103.8 58965.3 258.977
4549.55 57753.6 57675 58150 57926.3 256.554
4552.45 56402.5 56753.9 56525.2 56976.2 253.544
4555.36 56105.5 56473.5 56253.5 56670.7 252.836
4558.27 56912.3 56903.6 57233.4 57153.6 254.65
4561.17 57692.9 57940.8 57973.9 58290.6 256.401
4564.08 59217.2 58972 59664.4 59409.9 259.805
4566.98 60005.9 59802.3 60591.2 60263.7 261.498
4569.89 60183.8 60180.2 60535.6 60690.1 261.9
4572.8 60350.8 60546 60943.4 61100.8 262.248
4575.7 61103.3 60694.2 61823.4 61324.3 263.9
4578.61 60628.3 60768.4 61206 61393.4 262.875
4581.51 60573.4 60596.5 61150.8 61202.1 262.757
4584.42 60587.8 60626.8 61249.4 61234.3 262.794
4587.32 60719 60683.9 61302.8 61296.6 263.041
4590.23 60744.8 60562.1 61337.5 61162.1 263.098
4593.14 60222.6 60739.4 60846 61356.5 261.946
4596.04 61251 61123.6 61886.1 61772.9 264.193
4598.95 61897.1 61606.5 62586.6 62276 265.596
4601.85 61671.3 61782.7 62355.3 62527.5 265.112
4604.76 61779.6 61972.4 62640.6 62774.6 265.341
4607.66 62466.2 62358.5 63327.9 63278.7 266.863
4610.57 62829.6 62867.6 63867.7 63815.2 267.578
4613.47 63307 62805.8 64250.1 63778.9 268.648
4616.38 62280.8 62691.9 63218.8 63597.5 266.427
4619.28 62487.8 62784.6 63323.4 63715.5 266.861
4622.19 63585.1 63219.6 64604.3 64170.8 269.201
4625.09 63585.9 63343.9 64584.8 64335.4 269.206
4628 62860.8 63503 63817.2 64490 267.684
4630.9 64062.2 61460.4 65068 64281.9 270.199
4633.81 57458.3 59765.4 63960.6 64497.9 255.837
4636.71 57775.8 57743.2 64465 64395.2 256.523
4639.61 57995.6 58083.5 64760.1 64869 257.077
4642.52 58479 58196.8 65381.8 65023.5 258.121
4645.42 58115.9 58097.4 64928.5 64927.4 257.321
4648.33 57697.4 58188 64472 65006.2 256.363
4651.23 58750.8 58106.8 65618.3 64910.2 258.75
4654.14 57872.3 58399.3 64640.3 65253.4 256.83
4657.04 58574.8 58421.6 65501.7 65272.3 258.291
4659.94 58817.6 58618.3 65674.8 65472 258.882
4662.85 58462.5 58136.9 65239.4 64919.4 258.093
4665.75 57130.6 57349.6 63844 64105.7 255.096
4668.66 56455.8 57099.8 63233.8 63873.2 253.598
4671.56 57713 57582.1 64541.8 64432.6 256.417
4674.46 58577.4 58351.1 65522.1 65259.7 258.349
4677.37 58762.8 58586.1 65715.3 65525.8 258.773
4680.27 58418.1 58597.6 65340 65564.4 257.986
4683.18 58611.8 58762.7 65637.8 65764.1 258.407
4686.08 59258.1 59022.9 66314.5 66055.6 259.872
4688.98 59198.8 59218.5 66214.4 66261.4 259.681
4691.89 59198.5 59413.5 66255.4 66516.9 259.716
4694.79 59843.1 59594.1 67081 66779 261.141
4697.69 59740.6 59455.2 67000.6 66618.7 260.883
4700.6 58781.9 58828.1 65774.5 65939.9 258.789
4703.5 57961.8 58400.9 65044.6 65464.6 256.948
4706.4 58458.9 58406.7 65574.7 65541.7 258.057
4709.31 58799.6 58621.1 66005.9 65759.4 258.831
4712.21 58604.7 58677.9 65697.6 65798.5 258.416
4715.11 58629.4 58924.5 65691.9 66068.2 258.44
4718.01 59539.4 59353.9 66815.2 66581.8 260.497
4720.92 59892.9 59723.5 67238.4 67038.4 261.238
4723.82 59738.2 59544.2 67061.6 66863.2 260.878
4726.72 59001.6 59214.9 66289.8 66511.9 259.274
4729.63 58904.7 59130.8 66184.5 66418.6 259.029
4732.53 59486 59006.8 66781.5 66257.7 260.323
4735.43 58629.7 59108.8 65807.2 66349 258.427
4738.33 59210.8 58981.9 66458.3 66206.5 259.731
4741.24 59105.1 59201.9 66353.8 66465.6 259.507
4744.14 59289.7 59212.2 66584.6 66498.1 259.93
4747.04 59241.8 59432.6 66556 66741.3 259.831
4749.94 59766.2 59504 67083.4 66812.6 260.978
4752.85 59504.1 59607.9 66798.5 66966.5 260.405
4755.75 59553.4 59505.4 67017.5 66870.4 260.471
4758.65 59458.8 59444.4 66795.1 66842 260.28
4761.55 59321 59316.1 66713.4 66691.6 259.923
4764.45 59168.3 59314.3 66566.3 66729.7 259.629
4767.36 59453.5 59532 66909.3 66983.7 260.244
4770.26 59974.3 59866.6 67475.4 67366.1 261.406
4773.16 60171.9 60207.7 67713.7 67752.7 261.879
4776.06 60476.8 60581.1 68069.1 68176.6 262.476
4778.96 61094.6 60595.3 68746.9 68207.5 263.894
4781.86 60214.3 60487 67806.4 68087 261.914
4784.76 60152 59907.4 67707.8 67473.3 261.834
4787.67 59355.8 59789.7 66905.7 67351.8 260.052
4790.57 59861.3 59681.7 67441.8 67291.4 261.192
4793.47 59828.2 59914.2 67526.7 67569.1 261.125
4796.37 60053.3 59980.5 67738.7 67639.9 261.572
4799.27 60060.1 60034.4 67654.3 67716.3 261.628
4802.17 59989.9 59753.4 67755.8 67405.5 261.411
4805.07 59210.1 59337.8 66806.3 66935.9 259.716
4807.97 58813.5 59003.3 66245.5 66541.3 258.861
4810.88 58986.2 59100.7 66572.2 66665.4 259.251
4813.78 59502.3 59426.1 67178.5 67085.9 260.376
4816.68 59789.7 59253.1 67506.9 66880.8 261.05
4819.58 58467.2 58536.7 65956.9 66087.4 258.067
4822.48 57353.1 57650.5 64798.5 65114.7 255.628
4825.38 57131.3 57015.1 64588.7 64444.2 255.145
4828.28 56560.9 56849.9 63945.3 64265 253.833
4831.18 56857.4 56560.5 64261 63920.1 254.514
4834.08 56263.1 56366.4 63553.9 63678.5 253.211
4836.98 55978.7 55811.1 63220.4 63033.6 252.521
4839.88 55191.5 54884.4 62326.5 61968 250.706
4842.78 53483.1 53531 60357.2 60461.8 246.769
4845.68 51918.3 51967 58701.7 58722.1 243.144
4848.58 50499.6 50047.3 57107.4 56587.4 239.838
4851.48 47724.1 47300 53953.2 53488.4 233.056
4854.38 43676.2 43537.3 49404.5 49248.2 222.895
4857.28 39211.6 39150.6 44387 44343.9 211.118
4860.18 34564.1 36014.8 39240.3 40860.5 198.12
4863.08 34268.8 35214 38954.3 40015.2 197.31
4865.98 36809.1 37063.8 41851 42104.4 204.516
4868.88 40113.4 39772.3 45507.8 45127.6 213.572
4871.78 42394.3 42366.7 48023.9 48004.1 219.632
4874.68 44592.3 44778.5 50480.7 50704.3 225.198
4877.58 47348.9 47065.1 53608.2 53283.4 232.162
4880.48 49254.2 48735.7 55761.3 55198.1 236.788
4883.38 49604.1 50077 56224.8 56715.1 237.618
4886.27 51372.6 50956.5 58159.1 57737.6 241.941
4889.17 51892.7 52187.8 58828.9 59133.4 243.121
4892.07 53297.9 53298.8 60412 60438.8 246.418
4894.97 54705.9 54448.4 62075.4 61730.2 249.614
4897.87 55341.6 55210.4 62703 62612.3 251.105
4900.77 55583.6 55850.1 63058.5 63320.9 251.656
4903.67 56625.2 56470.1 64201.2 64078.4 253.996
4906.57 57201.3 57047.4 64975.5 64741.8 255.267
4909.47 57315.6 57303.7 65048.8 65071 255.493
4912.36 57394.1 57448.7 65188.9 65185.9 255.695
4915.26 57636.3 56893.7 65319.9 64558.5 256.231
4918.16 55650.7 56087.4 63166.8 63630.7 251.773
4921.06 54975.3 55447.2 62405.3 62993.9 250.256
4923.96 55715.4 56041.8 63409.8 63707.4 251.893
4926.86 57434.5 57185 65307.3 65016 255.769
4929.75 58405.1 57736.4 66330.8 65577.7 257.928
4932.65 57369.7 57497.4 65095 65293.5 255.668
4935.55 56717.4 57313.9 64454.9 65101.9 254.193
4938.45 57854.6 57884.4 65755.8 65812 256.708
4941.35 59081.2 58743.7 67225.4 66811.5 259.414
4944.24 59295.4 59643.5 67453.4 67847.6 259.899
4947.14 60553.8 60118.4 68864.1 68355.7 262.688
4950.04 60505.8 60368.5 68749.6 68652.2 262.597
4952.94 60046 60222 68342.8 68500 261.575
4955.83 60114.3 60070 68407.8 68388.1 261.747
4958.73 60049.9 60468.2 68413.7 68847.5 261.553
4961.63 61240.4 60851.7 69721 69301.2 264.189
4964.52 61264.9 61072.8 69768.8 69530.5 264.24
4967.42 60713 60982.1 69101.7 69445.4 263.044
4970.32 60968.2 60991.1 69465.7 69442.6 263.601
4973.22 61292.2 61375.2 69760.4 69898.8 264.305
4976.11 61865.3 61281 70470.4 69785.4 265.53
4979.01 60685.5 60216.8 69125.3 68575.2 262.976
4981.91 58099.6 58898 66130 67108.8 257.289
4984.8 57908.9 58348 66071.2 66490.7 256.826
4987.7 59035.4 58905.8 67271 67165.7 259.349
4990.6 59773 59904.6 68155 68280.1 260.982
4993.49 60905.5 60310.9 69414.2 68764.5 263.447
4996.39 60254 60292.9 68724.4 68730.1 262.032
4999.29 59719.2 59758.9 68051.6 68160.1 260.882
5002.18 59303.6 59335.7 67704.4 67677 259.885
5005.08 58984.4 59394.9 67274.9 67769.6 259.28
5007.97 59896.8 59650.3 68329.6 68063.2 261.244
5010.87 60069.6 59713.9 68585.2 68138.8 261.641
5013.77 59175.4 59338.8 67501.8 67725.4 259.682
5016.66 58771.6 59080.4 67089.3 67430.4 258.756
5019.56 59294.4 59559.7 67700 68008.2 259.909
5022.45 60613.1 60289.9 69235.3 68868.8 262.814
5025.35 60962.3 61048.9 69671 69737.3 263.551
5028.24 61571.3 61581 70305.7 70345.4 264.872
5031.14 62209.5 61847.9 71059.6 70622.2 266.287
5034.04 61762.9 61667.3 70501.5 70431.4 265.277
5036.93 61029.6 61090.8 69733.2 69765.1 263.748
5039.83 60480 60939 69060.6 69645.6 262.58
5042.72 61307.4 61319.9 70143.1 70126.6 264.341
5045.62 62172.3 61640.6 71176.1 70495.3 266.183
5048.51 61442.1 61842.5 70166.8 70712.9 264.645
5051.41 61913.1 62115.5 70795.8 70980.9 265.601
5054.3 62991.2 62619.2 71980.2 71606.4 267.988
5057.2 62953.1 63472.9 72043.2 72598.1 267.867
5060.09 64474.4 63646.1 73770.9 72798.9 271.1
5062.99 63510.6 63874.5 72582.5 73034.8 269.07
5065.88 63638.5 63389.2 72750.8 72466 269.362
5068.77 63018.6 63028.1 72064.8 72089.8 268.022
5071.67 62427.1 62270.7 71453.7 71283.2 266.769
5074.56 61366.3 61424.5 70331 70324.2 264.476
5077.46 60480.2 60624.7 69187.9 69418.4 262.578
5080.35 60027.6 60307.1 68736.3 69053.1 261.567
5083.25 60413.5 60526.4 69235.1 69304.2 262.322
5086.14 61138.2 61149.8 69941.2 70017.3 263.972
5089.03 61897.8 61757 70875.7 70694.6 265.664
5091.93 62235.2 62378.5 71266.8 71429.8 266.324
5094.82 63002.6 62204 72146.9 71241.9 268.014
5097.72 61374.2 62027 70311.9 71051.4 264.446
5100.61 61704.3 61711.9 70695.4 70702.5 265.171
5103.5 62057.3 62029.4 71100.1 71083.3 265.954
5106.4 62326.6 62128.6 71454.2 71233.1 266.514
5109.29 62001.8 62311.2 71145.1 71459 265.859
5112.18 62605.1 62352.8 71777.8 71509 267.153
5115.08 62451.4 62553 71604.2 71709.1 266.798
5117.97 62602.5 62212.4 71745.4 71324.8 267.129
5120.86 61583.4 61438.1 70624.7 70438.6 264.959
5123.76 60128.3 60784.7 68945.7 69733 261.784
5126.65 60642.4 60608.2 69628.7 69540.1 262.884
5129.54 61053.8 60844 70045.8 69839.2 263.765
5132.43 60835.6 60916.6 69843.2 69889 263.296
5135.33 60860.4 60888.8 69777.9 69856.1 263.395
5138.22 60970.4 60894.8 69947 69860.2 263.618
5141.11 60853.7 61032.7 69855.6 70020.1 263.349
5144 61273.9 61286.2 70257.8 70326.1 264.301
5146.9 61731.1 61650.2 70864.9 70751.4 265.277
5149.79 61945.5 61777.5 71131.4 70940.2 265.686
5152.68 61655.7 61795.4 70824.4 70983.5 265.117
5155.57 61785 61784.7 70994.8 70973.6 265.397
5158.47 61913.3 61755.2 71101.5 70910.6 265.658
5161.36 61567.3 61270.6 70635.4 70352.4 264.928
5164.25 60331.3 60157.3 69320.2 69070.8 262.227
5167.14 58573.4 58977.4 67256.8 67761.3 258.37
5170.03 58027.7 58491.7 66707 67210.4 257.183
5172.92 58874 59149.3 67667.3 68001.5 259.053
5175.82 60546.4 60187 69630.2 69192.8 262.682
5178.71 61140.7 60743.7 70281 69798.8 264.027
5181.6 60543.9 60426.7 69485.2 69437.8 262.698
5184.49 59595.5 59818.4 68547.3 68719.7 260.652
5187.38 59315.9 59185.6 68126.7 68057.6 260.026
5190.27 58645.5 59036.4 67498.8 67875.2 258.552
5193.16 59147.8 58704.7 68000.1 67509.9 259.637
5196.05 58321 58688.3 67030.7 67485.3 257.805
5198.94 58596.1 58380.9 67425.2 67161.5 258.387
5201.84 58225.7 58049.8 67028.7 66779.5 257.584
5204.73 57327.6 57949.5 65884.5 66683.8 255.597
5207.62 58295.2 58542.3 67138.2 67352.7 257.755
5210.51 60004.2 59515.5 69035.3 68501 261.478
5213.4 60247 60040.3 69329.6 69078.3 262.048
5216.29 59869.6 60438.5 68870.2 69508 261.223
5219.18 61198.8 60783 70324.3 69862.9 264.15
5222.07 61280.4 60839.7 70394.2 69860.9 264.303
5224.96 60040 59999.1 68864.1 68853.9 261.576
5227.85 58677 59297.3 67303.5 68022.7 258.599
5230.74 59174.8 58828.8 67900.5 67476.4 259.687
5233.63 58634.7 59137.4 67225 67859.4 258.497
5236.52 59602.9 59723.6 68452.5 68567.8 260.659
5239.41 60933.3 60817.8 70026 69901.5 263.532
5242.3 61917.4 61383 71225.9 70581.6 265.671
5245.19 61298.4 61467.7 70492.9 70731.6 264.359
5248.08 61187.3 61172.3 70476 70408.1 264.11
5250.97 61031.2 61047.9 70255.2 70304.4 263.775
5253.85 60925.3 60944.2 70182 70204.9 263.562
5256.74 60876.1 60859.8 70177.4 70133.8 263.411
5259.63 60777.9 60388.1 70042 69606.1 263.174
5262.52 59510.4 59694.9 68598.8 68798.8 260.42
5265.41 58796.4 58513.6 67755.5 67427.9 258.884
5268.3 57234 57714.4 65929.5 66526.1 255.433
5271.19 57112.8 57177.9 65893.3 65884.3 255.119
5274.08 57187 57508.2 65830.1 66244.5 255.282
5276.97 58224.7 58015.3 67010.1 66751.7 257.587
5279.85 58634 58667.2 67415 67473.5 258.486
5282.74 59142.8 59221.7 67995.4 68095 259.631
5285.63 59888.4 59980.4 68874.5 69000.7 261.281
5288.52 60910.1 60480.6 70132.1 69602.8 263.463
5291.41 60643.3 60801.7 69801.6 70010.3 262.934
5294.3 60851.8 60860.4 70097.3 70100.1 263.384
5297.18 61086.2 60791.4 70401.4 70070.3 263.859
5300.07 60436.3 60688.6 69712.1 70006.4 262.487
5302.96 60543.4 60715.8 69905.7 70105.9 262.715
5305.85 61167.7 61078.1 70699.8 70583.2 264.059
5308.73 61523.1 61262 71144 70801 264.809
5311.62 61095.2 60980.3 70559.2 70439.3 263.905
5314.51 60322.6 60607.4 69614.8 69973.3 262.226
5317.4 60404.3 60244.1 69746 69551.8 262.375
5320.28 60005.2 59853.3 69294.7 69126.5 261.519
5323.17 59150.3 59316.5 68338.8 68514.3 259.642
5326.06 58793.9 58586 67909.5 67672.1 258.886
5328.94 57813.8 58785.8 66768 67916.3 256.682
5331.83 59749.9 59137.2 69071.5 68335.7 260.967
5334.72 59847.8 59649.7 69167.5 68955.5 261.194
5337.6 59351.6 59536.3 68627.6 68821.4 260.058
5340.49 59409.6 59640.6 68669.2 68961.7 260.219
5343.38 60160.6 60089 69588.3 69477.6 261.868
5346.26 60696.7 60671.6 70175.5 70146 263.07
5349.15 61157.5 61143 70674.1 70682.2 264.025
5352.04 61574.8 61636.8 71197.1 71252.9 264.981
5354.92 62178.1 61829.4 71887.5 71480.6 266.259
5357.81 61735.3 61803.5 71357.1 71437.5 265.259
5360.69 61497.2 61125.2 71067.7 70641.6 264.79
5363.58 60143.1 60308.1 69499.9 69720.3 261.8
5366.47 59284 59481.8 68593.3 68785.8 259.921
5369.35 59018.2 59274.2 68264.1 68596.7 259.346
5372.24 59520.5 59739.9 68932.8 69156.8 260.481
5375.12 60681 60368.8 70273.3 69867.2 262.983
5378.01 60904.8 60693.1 70395.3 70223.2 263.52
5380.89 60493.4 60642.1 70000.9 70146.9 262.593
5383.78 60528.2 60470.7 70044.6 69982.4 262.7
5386.66 60390.5 60702.4 69901.6 70246.8 262.368
5389.55 61188.5 60704.1 70794.2 70231.7 264.138
5392.43 60533.3 60734.6 69999.3 70270.9 262.688
5395.32 60482 60249.5 70019.3 69718.7 262.589
5398.2 59733.2 59866.1 69137.5 69255.8 260.92
5401.09 59383 59231.9 68610.5 68499.3 260.199
5403.97 58579.5 58748.7 67750.1 67925.7 258.377
5406.86 58283.5 58377.3 67416.5 67551 257.753
5409.74 58268.9 58515.8 67486.4 67744.2 257.739
5412.63 58995.1 59105.6 68329.6 68449.6 259.282
5415.51 60052.8 59772.1 69532.7 69225.1 261.651
5418.39 60268.6 60299.7 69812.8 69840.4 262.1
5421.28 60577.8 60238.2 70175.5 69741.2 262.801
5424.16 59868.2 60127.9 69235.3 69607.8 261.222
5427.05 59937.6 59942.4 69412.5 69405.9 261.429
5429.93 60021.5 59964.4 69569.8 69459.9 261.583
5432.81 59934.1 60296.9 69397.3 69863.1 261.423
5435.7 60935.2 60863.5 70622.1 70498.6 263.524
5438.58 61721.2 61482.8 71476.3 71209.1 265.27
5441.46 61792 61492.7 71528.8 71213.6 265.447
5444.35 60964.9 61035.4 70635.6 70702.9 263.614
5447.23 60349.1 60899.5 69944.2 70554.6 262.305
5450.11 61384.6 60952.5 71084 70610.9 264.543
5453 61123.8 61062.3 70804.3 70738.8 263.974
5455.88 60678.4 60970.9 70328.2 70656.4 263.029
5458.76 61110.6 60792 70836.6 70446.4 263.942
5461.64 60586.9 60838.9 70174.6 70501.3 262.793
5464.53 60819.3 60992.2 70492.7 70678.1 263.36
5467.41 61570.5 61049.3 71367.2 70759.2 264.971
5470.29 60758.1 60625.5 70417.8 70269 263.16
5473.17 59547.9 59805.8 69022 69299.3 260.552
5476.06 59111.3 59309 68458.1 68705.5 259.582
5478.94 59267.6 59524.6 68636.2 68949.2 259.905
5481.82 60195 60169.3 69753.2 69722 261.937
5484.7 61045.2 60813.4 70776.7 70478.6 263.83
5487.58 61200 61239.5 70905.8 70969.6 264.166
5490.46 61473.2 61574.2 71226.5 71350.7 264.724
5493.35 62049.4 61574.5 71919.9 71380.6 265.976
5496.23 61201 61259.4 70995.3 71026 264.136
5499.11 60527.6 60820.2 70162.8 70532.4 262.697
5501.99 60732.1 60747.2 70439 70424.6 263.136
5504.87 60981.8 60773.7 70672.1 70450 263.66
5507.75 60607.3 60629.7 70238.8 70263.2 262.834
5510.63 60299.9 60556.8 69878.8 70208 262.218
5513.51 60763 60895 70506.3 70605.8 263.2
5516.4 61622.1 61282.7 71432.3 71056.7 265.111
5519.28 61463.1 61438.4 71231.5 71202.8 264.703
5522.16 61230 61261.1 70944.8 70995.9 264.219
5525.04 61090.2 61004.6 70811.5 70723.7 263.92
5527.92 60693.6 60993.9 70414.7 70721.3 263.042
5530.8 61198 60813.8 70937.8 70516.9 264.143
5533.68 60549.9 60922.6 70198.1 70645 262.739
5536.56 61020 61081.9 70799.1 70827.4 263.73
5539.44 61676 61192.1 71485.1 70968.9 265.166
5542.32 60880.4 60877.4 70622.5 70607.4 263.468
5545.2 60076 60585.1 69714.6 70277.7 261.671
5548.08 60799 60704.4 70496 70412 263.24
5550.96 61238.3 61290.7 71025.4 71084.3 264.192
5553.84 61834.7 61387.7 71731.6 71211.6 265.508
5556.72 61090.2 61491.4 70878 71328 263.858
5559.6 61549.4 61248.2 71374.4 71035 264.919
5562.47 61105.1 61225 70852.8 71014.3 263.914
5565.35 61020.5 61012.5 70815.6 70771.6 263.751
5568.23 60912 60810.7 70646.5 70577.8 263.445
5571.11 60499.5 60607.6 70271.2 70389.6 262.422
5573.99 60411.4 60580.6 70251.2 70403.7 262.069
5576.87 60830.9 60786.9 70688.6 70637.7 262.883
5579.75 61118.5 60973.3 70973.3 70775.5 263.575
5582.63 60970.5 60746.8 70664.6 70438.9 263.346
5585.5 60151.4 60492.9 69678.9 70101.2 261.671
5588.38 60356.9 60248.6 69960 69788.7 262.16
5591.26 60237.4 60199.9 69727.1 69753.7 261.954
5594.14 60005.5 60294 69574 69881.4 261.461
5597.02 60639.1 60193.3 70343.1 69790.3 262.891
5599.89 59935.1 60328.3 69453.9 69961.5 261.405
5602.77 60410.6 60420.9 70087.6 70081.3 262.408
5605.65 60917.1 60686.7 70702.4 70406.8 263.485
5608.53 60732.5 60843.9 70430.3 70591.4 263.131
5611.4 60882.2 60660.9 70641.7 70355.8 263.429
5614.28 60368 60448.7 69995.5 70124.3 262.355
5617.16 60095.8 60164.5 69735.7 69790.7 261.704
5620.04 60029.9 60054.5 69640.7 69671.2 261.576
5622.91 60038 60111.6 69637.2 69728 261.611
5625.79 60266.9 60383.5 69905.9 70028.5 262.134
5628.67 60845.5 60706.1 70542.5 70392.6 263.396
5631.54 61005.9 60826.3 70729.5 70512.5 263.746
5634.42 60627.5 60646.3 70265.6 70304.1 262.899
5637.3 60305.6 60330.1 69917 69948.4 262.235
5640.17 60057.1 60237.7 69662.6 69853.1 261.617
5643.05 60350.2 60272.9 69979.6 69916.9 262.338
5645.93 60411.3 60341.9 70108.5 69982.8 262.435
5648.8 60264.4 60449.3 69860.2 70123.8 262.14
5651.68 60672.1 60338.8 70402.7 69978.1 262.981
5654.55 60079.9 59895.4 69671.4 69464.4 261.716
5657.43 58934.1 59263.4 68319.2 68706.4 259.196
5660.3 58776.2 58639 68128.5 67989.2 258.865
5663.18 58206.6 58593.7 67519.8 67944.7 257.592
5666.06 58798.1 58915.8 68185.8 68331.7 258.878
5668.93 59742.7 59481.6 69289.3 68987.7 260.942
5671.81 59904 60042.5 69487.9 69630.1 261.285
5674.68 60480.8 60129.8 70113.1 69722 262.59
5677.56 60004.4 60033.3 69564.9 69594.8 261.569
5680.43 59614.7 59607.7 69106.6 69095.9 260.7
5683.31 59204 59162.3 68616.4 68591.8 259.851
5686.18 58668.1 58838.1 68052.4 68226 258.547
5689.06 58642.3 58863 68009.3 68256.6 258.57
5691.93 59278.7 59062.5 68708.3 68478.1 259.953
5694.8 59266.6 59237.9 68716.8 68668 259.893
5697.68 59168.6 59134.8 68578.8 68560.4 259.731
5700.55 58969.3 59029.7 68385.5 68419 259.268
5703.43 58951.4 58748 68292.7 68096 259.202
5706.3 58323.3 58442.1 67609.7 67735.5 257.84
5709.17 58051.7 58247.3 67303.9 67516.7 257.235
5712.05 58366.9 58357.3 67636.5 67630.6 257.923
5714.92 58653.3 58552.1 67951.2 67847.3 258.561
5717.8 58636.2 58793 67954.2 68124.7 258.588
5720.67 59089.5 59083.7 68468.8 68469.8 259.563
5723.54 59525.3 59136.3 68986.5 68526.4 260.52
5726.41 58794 59095.3 68123.9 68467.5 258.867
5729.29 58966.6 58976.9 68292.2 68318.2 259.293
5732.16 59169.9 58890.3 68538.5 68199.1 259.716
5735.03 58534.4 58905.9 67766.6 68215.5 258.319
5737.91 59013.5 58762.7 68341.3 68034.5 259.383
5740.78 58740.2 58816.1 67995.7 68085.8 258.795
5743.65 58694.6 58493 67920.3 67717 258.691
5746.52 58044 58337.3 67234.9 67523.9 257.205
5749.4 58273.3 58181.4 67416.6 67357.2 257.732
5752.27 58227 58123.8 67420.1 67275.7 257.661
5755.14 57871.1 58078.1 66990.3 67241.5 256.862
5758.01 58136.1 57886.1 67314.1 67025.2 257.445
5760.88 57650.9 57859.3 66771.2 67007 256.345
5763.76 57790.7 57666.5 66935.8 66783.1 256.643
5766.63 57557.8 57729.6 66642.3 66837.9 256.158
5769.5 57840.2 57702.3 66935.7 66783.1 256.798
5772.37 57708.7 56259.1 66771.2 66930.2 256.463
5775.24 53228.2 54677.1 67083.7 66912.3 246.239
5778.11 53094.3 53023.4 66881.9 66762.2 246.029
5780.98 52747.7 52809.1 66321 66482.1 245.204
5783.86 52585.2 52644.2 66243.5 66220 244.784
5786.73 52599.8 52798.1 66095.5 66397.5 244.805
5789.6 53209.4 52992.9 66853.5 66564.9 246.221
5792.47 53169.5 53107.2 66745.6 66685.8 246.136
5795.34 52942.6 53089.5 66458.4 66642.3 245.624
5798.21 53156.3 53127.5 66722.8 66679.3 246.133
5801.08 53283.6 53103.7 66856.8 66658.1 246.453
5803.95 52871.2 52930.8 66394.7 66431.1 245.44
5806.82 52637.6 52866.7 66041.8 66346 244.885
5809.69 53091.3 53072.4 66601.7 66545.1 245.989
5812.56 53488.2 53259.1 66991.9 66735.9 246.875
5815.43 53197.9 53411.4 66614.1 66916.4 246.238
5818.3 53548.1 53249.3 67143.3 66757.3 247.047
5821.17 53002 53435.3 66514.6 66988 245.722
5824.04 53755.8 53317.4 67306.1 66780 247.467
5826.91 53194.5 53361.9 66519.2 66794.8 246.274
5829.77 53135.5 53318.9 66559 66707.9 246.06
5832.64 53626.6 53465.3 67045.4 66890.6 247.207
5835.51 53634 53510.9 67067.4 66892.2 247.219
5838.38 53272.1 53490.4 66563.7 66909.9 246.426
5841.25 53565.1 53408.7 67098.6 66819.3 247.079
5844.12 53388.8 53302.3 66795.6 66702.9 246.664
5846.99 52953.1 53212.7 66214.6 66501.2 245.628
5849.86 53296.1 52579.4 66493.4 65697.3 246.443
5852.72 51489.1 52240.1 64383.9 65241.7 242.19
5855.59 51935.2 51850 64847.6 64785.1 243.276
5858.46 52125.7 52080.5 65123.7 65054.3 243.711
5861.33 52180.7 52387.9 65191.6 65384.9 243.828
5864.2 52857.4 52673.3 65839.3 65662.1 245.434
5867.06 52981.8 53049.4 65955.3 66043.6 245.658
5869.93 53309.1 53281.3 66336.3 66293.9 246.432
5872.8 53553 53459.7 66590.2 66539.6 247.044
5875.67 53516.9 53385.1 66692.2 66473.1 246.902
5878.53 53085.6 53148.3 66137 66230.4 245.955
5881.4 52842.4 52828.9 65862.1 65833.9 245.337
5884.27 52558.6 52235.5 65502.5 65105.3 244.646
5887.13 51305.6 51219.9 63951.3 63853.6 241.616
5890 49795.6 50354.3 62107 62803.6 238.054
5892.87 49961.7 50020.1 62352.6 62322.7 238.411
5895.73 50302.9 50555.4 62508.5 62904.1 239.232
5898.6 51401.7 51183.1 63851 63560.6 241.916
5901.47 51844.8 51844.4 64322.1 64334.9 242.966
5904.33 52286.8 52120.1 64831.7 64651.7 244.018
5907.2 52228.7 52307.4 64801.3 64883.5 243.859
5910.06 52406.7 52290.3 65017.5 64905.5 244.308
5912.93 52235.4 52259 64897.7 64874.7 243.929
5915.79 52134.8 52348.8 64709 64965 243.674
5918.66 52676.1 52384.1 65288.2 64960.9 244.951
5921.53 52341.3 52463.9 64885.5 65012 244.208
5924.39 52374.4 52408.9 64862.3 64936.2 244.273
5927.26 52511.1 52174.9 65060.9 64632.7 244.61
5930.12 51639.3 51961.3 63974.9 64362.5 242.576
5932.99 51733.7 51835.7 64051.8 64202 242.784
5935.85 52134.2 52071.7 64579.4 64482.3 243.685
5938.72 52347.1 52242.5 64815.6 64682.4 244.161
5941.58 52246 52151.6 64652.3 64533.1 244.015
5944.44 51861.5 51914.4 64131.3 64221.7 243.115
5947.31 51635.6 51818 63881.3 64064 242.568
5950.17 51956.8 51708.7 64179.3 63937.3 243.333
5953.04 51533.8 51759 63751.1 63984.4 242.356
5955.9 51786.3 51745.7 64022.7 63951.4 242.906
5958.76 51917 51917.6 64080.3 64136 243.223
5961.63 52049.5 51820.7 64304.9 63950.1 243.538
5964.49 51495.5 51723.9 63465.2 63824 242.247
5967.36 51626.6 51727 63701.9 63792.2 242.535
5970.22 52058.9 51743.7 64209.3 63843.7 243.558
5973.08 51545.4 51679.7 63619.7 63784.8 242.344
5975.95 51434.7 51248.7 63525.2 63249.2 242.079
5978.81 50765.9 50947.8 62602.7 62863.7 240.469
5981.67 50642.8 50794.5 62463.4 62591.8 240.225
5984.53 50974.7 50659.7 62709.2 62418.6 240.984
5987.4 50361.5 50782.6 62083.2 62506.7 239.527
5990.26 51011.6 50879.9 62727.6 62623.3 241.102
5993.12 51266.6 51090.5 63059 62801.6 241.7
5995.98 50993.2 51205.4 62618.1 62942.8 241.109
5998.85 51356.5 51172.8 63151.2 62931.6 241.905
6001.71 51168.8 51018.5 63025.5 62765.1 241.458
6004.57 50530.2 50748.7 62118.6 62438.5 239.987
6007.43 50547 50580.3 62171.3 62157.7 240.009
6010.29 50663.6 50454.7 62183.1 61993.8 240.288
6013.15 50153.6 50392.2 61627.1 61870 239.059
6016.02 50359.5 50236.3 61799.8 61677.3 239.633
6018.88 50195.7 50122.2 61604.9 61526.9 239.212
6021.74 49811.6 49997.7 61176 61359.4 238.239
6024.6 49985.8 50016.9 61297.2 61340.7 238.711
6027.46 50253.3 50217.2 61548.8 61513.1 239.302
6030.32 50412.6 50333 61693.2 61612.2 239.702
6033.18 50333 50426.5 61594.4 61706 239.477
6036.04 50533.9 50471.2 61830.2 61800.9 240.009
6038.9 50546.7 50482.8 61977.9 61814 240.013
6041.76 50367.7 50339.5 61633.8 61629 239.592
6044.62 50104.1 50305.7 61275.2 61550.7 238.99
6047.48 50445.3 50255.6 61743.1 61464 239.757
6050.34 50217.5 50343.5 61373.7 61561.2 239.254
6053.2 50367.7 50311 61567 61462.9 239.609
6056.06 50347.8 50505.6 61448 61704 239.552
6058.92 50801.2 50477.9 62096.9 61663.1 240.678
6061.78 50284.8 50364.5 61444.3 61531.7 239.455
6064.64 50007.6 50151.9 61053.8 61245.4 238.782
6067.5 50163.2 50244.6 61237.9 61345.8 239.12
6070.36 50563.1 50376.7 61745.7 61466.5 240.096
6073.22 50403.7 50385.6 61415.8 61476.3 239.705
6076.08 50190 49988.1 61267.5 60984.5 239.181
6078.93 49370.7 49733 60270.1 60672.8 237.214
6081.79 49638.3 49575.7 60480.8 60448.7 237.873
6084.65 49718.2 49637.5 60595.2 60517.1 238.094
6087.51 49556.1 49629 60475.3 60507.9 237.675
6090.37 49612.6 49531.8 60453.2 60380.4 237.802
6093.23 49426.7 49589.7 60212.7 60382.4 237.354
6096.08 49729.8 49579.3 60481.4 60343.8 238.114
6098.94 49581.5 49508.8 60337.4 60237.3 237.77
6101.8 49215 49303.6 59893.1 59990.3 236.833
6104.66 49114.2 49155.1 59740.4 59799.5 236.596
6107.51 49135.9 49221.6 59765 59846.1 236.675
6110.37 49414.8 49194.7 60032.9 59797.4 237.352
6113.23 49033.4 49282 59594.2 59875.4 236.444
6116.09 49397.7 49258.8 59999 59843.1 237.309
6118.94 49345.3 49360.5 59936.1 59923.2 237.168
6121.8 49338.6 49214.5 59834.6 59713.7 237.164
6124.66 48959.5 48969 59370.4 59394.6 236.266
6127.51 48608.9 48785.8 58978.8 59166.9 235.384
6130.37 48789.1 48673.8 59151.5 59054 235.82
6133.22 48623.5 48427.8 59031.6 58747 235.45
6136.08 47870.8 47800.4 58057.9 58005.8 233.636
6138.94 46906.9 47198.6 56927.8 57233.5 231.23
6141.79 46818 46880.1 56714.9 56814.3 230.946
6144.65 46915.5 47113 56800.3 57037.7 231.266
6147.5 47605.4 47361.7 57597.9 57300.1 232.95
6150.36 47564.1 47632.6 57502 57589.6 232.85
6153.21 47728.2 47781.6 57668.9 57728.3 233.287
6156.07 48052.5 47905.5 58014.2 57861.3 234.037
6158.92 47935.9 47959.4 57901 57916 233.791
6161.78 47889.7 48009.8 57832.9 57979.4 233.678
6164.63 48203.9 47981.8 58204.2 57943.3 234.432
6167.49 47851.8 48012.3 57792.7 57958.1 233.527
6170.34 47981.4 47820.3 57877.3 57712.5 233.842
6173.2 47627.6 47697.9 57467.6 57555.3 233.038
6176.05 47484.7 47522.9 57321 57335.8 232.652
6178.91 47456.5 47701.7 57218.9 57545.3 232.559
6181.76 48163.8 47872.6 58096 57693.3 234.318
6184.61 47997.5 47871.1 57764.8 57669 233.935
6187.47 47451.9 47607.3 57146.2 57345.6 232.572
6190.32 47372.6 47449.7 57125.7 57167.7 232.373
6193.17 47524.5 47621.9 57231.3 57366.3 232.771
6196.03 47968.7 47769.6 57741.9 57511.7 233.866
6198.88 47815.5 47936.7 57561.9 57658.1 233.459
6201.73 48025.8 47800.2 57670.4 57500.9 234.045
6204.59 47559.2 47778.5 57270.4 57468.2 232.841
6207.44 47750.4 47681.9 57463.9 57361.4 233.334
6210.29 47736.3 47722.2 57349.8 57365.9 233.317
6213.14 47680 47625.8 57283.9 57221.2 233.147
6216 47461 47577.6 57030 57161.6 232.594
6218.85 47591.7 47432.9 57170.8 56999.2 232.898
6221.7 47245.9 47316.5 56796.7 56832.5 232.053
6224.55 47112 47230.7 56530.1 56722.5 231.726
6227.41 47334.2 47124.8 56840.6 56565.7 232.268
6230.26 46928.3 46863.3 56326.4 56270.8 231.272
6233.11 46327.5 46686.7 55645.6 56042.1 229.761
6235.96 46804.3 46380 56154.4 55656.8 230.924
6238.81 46008.1 46365.3 55170.6 55589.4 228.905
6241.66 46283.6 46083.4 55443.4 55231.9 229.654
6244.51 45958.6 45890.7 55081.7 54982.7 228.836
6247.36 45430 45710 54423 54747.7 227.548
6250.21 45741.4 45593.8 54738.5 54568.1 228.37
6253.07 45610.1 45738.4 54542.7 54708.6 228.018
6255.92 45863.6 45861.9 54844.5 54832.4 228.632
6258.77 46112 45954.6 55109.9 54925 229.263
6261.62 45888.3 45972.5 54820.4 54945.2 228.655
6264.47 45917.2 46067.9 54905.2 55047.4 228.758
6267.32 46398.2 46052.9 55416.6 55029 229.943
6270.17 45843.3 46075 54765 55021.7 228.597
6273.02 45983.3 45735.7 54883.4 54598.9 228.964
6275.87 45380.4 45534.4 54148.4 54377.7 227.454
6278.71 45239.4 45370.1 54101.4 54161.4 227.068
6281.56 45490.4 45321.2 54234.6 54093.3 227.714
6284.41 45233.8 45375.5 53944 54108.4 227.027
6287.26 45402.3 45349.4 54146.7 54049.7 227.449
6290.11 45412 45541.4 54058.5 54272.3 227.497
6292.96 45809.9 45623.6 54611.8 54413.4 228.275
6295.81 45648.9 45434.9 54569.8 54265.3 227.625
6298.66 44846.1 45082.6 53614.2 53857.4 225.395
6301.51 44752.9 44969.9 53388.2 53629.3 225.163
6304.35 45310.6 45156.7 53885.4 53722.6 226.819
6307.2 45406.5 45423.3 53894.2 53938.9 227.255
6310.05 45552.6 45310.9 54037.1 53741.3 227.696
6312.9 44973.7 45060.1 53292.5 53428 226.336
6315.74 44653.9 44884.2 52954.4 53211.4 225.592
6318.59 45025.1 44795.1 53387.4 53120.6 226.577
6321.44 44706.4 44994.1 53020 53364.5 225.76
6324.29 45250.9 45034.7 53686.1 53398.9 227.095
6327.13 45147 45193.3 53490.6 53587 226.863
6329.98 45182.1 45165 53584.4 53527.5 226.92
6332.83 45165.9 44993.3 53507.4 53326.2 226.904
6335.67 44632 44792.9 52886.7 53081.8 225.604
6338.52 44580.8 44686.8 52851.3 52970.3 225.475
6341.37 44847.7 44560.7 53173 52813.9 226.125
6344.21 44253.7 44522.8 52417.4 52756.2 224.597
6347.06 44466.9 44520.8 52678.1 52736.6 225.121
6349.9 44841.8 44667.9 53114.5 52895.5 226.071
6352.75 44695 44842.1 52893.9 53065.1 225.738
6355.6 44989.6 44783.5 53187 52982.4 226.444
6358.44 44665.9 44763 52866.1 52979.3 225.464
6361.29 44633.4 44745.3 52884.7 52965.9 225.394
6364.13 44936.7 44714.3 53146.9 52906.8 226.175
6366.98 44572.9 44467.1 52688.8 52542.5 225.255
6369.82 43891.7 44195.8 51791.9 52191 223.592
6372.67 44122.8 44224.7 52092.4 52172.6 224.254
6375.51 44659.7 44449.6 52633.6 52424.9 225.655
6378.36 44566.4 44386 52548.6 52337.3 225.39
6381.2 43931.9 44245.3 51829.7 52195.7 223.805
6384.04 44237.5 44051.7 52208.7 51960.9 224.575
6386.89 43985.8 44038.9 51844.2 51927.6 223.972
6389.73 43893.3 43832.1 51729.8 51648.2 223.687
6392.58 43617.4 43754.1 51370.7 51554.2 223.025
6395.42 43751.6 43631.3 51561.9 51381.3 223.369
6398.26 43524.8 43810.8 51211.1 51575.7 222.805
6401.11 44155.9 43837.6 51954.2 51571 224.404
6403.95 43832.1 43963.5 51547.7 51702.3 223.58
6406.79 43902.5 43597.2 51605.1 51261.6 223.744
6409.64 43057.1 43429.7 50631.9 51077.4 221.57
6412.48 43329.6 43133.3 50995.2 50734.8 222.274
6415.32 43013.4 43157.5 50577.2 50741.5 221.447
6418.16 43129.6 43070.6 50652.3 50583.1 221.765
6421.01 43068.8 43074.6 50519.9 50544.2 221.616
6423.85 43025.5 42982.7 50460.4 50417.1 221.514
6426.69 42854 42926.2 50271 50347.7 221.042
6429.53 42899.2 42817.5 50311.8 50230.8 221.188
6432.37 42699.3 42918.5 50109.5 50361.4 220.648
6435.22 43157.1 43045.4 50663 50482.3 221.832
6438.06 43279.7 43099.2 50674.5 50541 222.141
6440.9 42860.7 43158.8 50285.5 50556.2 221.065
6443.74 43335.9 43119 50708.5 50510.3 222.319
6446.58 43160.3 43115.4 50536.8 50463.7 221.87
6449.42 42850.1 42878.8 50145.9 50187.9 221.042
6452.26 42625.9 42596 49881 49864.2 220.484
6455.1 42312 42476.4 49565.7 49718.9 219.623
6457.94 42491.2 42394 49710 49640.3 220.169
6460.78 42378.8 42408.3 49645.4 49646.9 219.75
6463.62 42354.8 42540.2 49585.4 49775.1 219.693
6466.46 42886.8 42618.1 50094.6 49811.2 221.017
6469.3 42612.7 42779.3 49753.6 49957.3 220.378
6472.14 42838.5 42760.6 50023.6 49912.1 220.988
6474.98 42830.7 42684.1 49959.3 49795.9 221.003
6477.82 42383.2 42380.8 49405 49439.9 219.869
6480.66 41928.5 42302.6 48955.5 49321.7 218.606
6483.5 42596 42187.6 49604.7 49175.4 220.412
6486.34 42038.3 42245.5 48965.9 49215.3 218.943
6489.18 42102.2 41693.4 49075.4 48608.4 219.141
6492.02 40939.8 40876.9 47783.7 47688.5 216.016
6494.86 39588.6 40220.5 46206.2 46911.3 212.409
6497.7 40133.3 40366.6 46743.9 47025.3 213.83
6500.53 41378 40913.8 48125.7 47609.7 217.165
6503.37 41230 41419.8 47959.3 48163.1 216.743
6506.21 41651.5 41537.5 48404.3 48283.8 217.869
6509.05 41730.9 41576 48487.7 48312.2 218.139
6511.89 41345.5 41308.5 48044.7 48017.4 217.158
6514.72 40849.2 41046.4 47519.8 47723.4 215.822
6517.56 40944.4 40943 47605.6 47592.2 216.097
6520.4 41035.4 41054.7 47651.1 47697 216.277
6523.23 41184.3 40985.6 47834.1 47595.3 216.706
6526.07 40737 40857.8 47300.8 47438.4 215.489
6528.91 40652.1 40584.8 47180.2 47095.1 215.256
6531.75 40365.3 40326.4 46804.4 46759.7 214.494
6534.58 39961.7 40050.6 46294.5 46421.3 213.387
6537.42 39824.8 39785.6 46165.1 46107.3 213.041
6540.25 39570.4 39180.2 45862.3 45417.9 212.349
6543.09 38145.4 38348.9 44226.2 44519.2 208.515
6545.93 37330.9 37429.1 43469.3 43454 206.229
6548.76 36811 36559 42666.4 42437.4 204.798
6551.6 35535.1 35332.2 41176.5 40965.7 201.163
6554.43 33650.3 33255.9 39054.2 38585.5 195.748
6557.27 30582.2 30355.4 35525.9 35269.5 186.572
6560.1 26833.6 27717.4 31228.3 32209.5 174.655
6562.94 25736.4 26712.7 29874.4 30974.5 170.992
6565.77 27568 27817.5 31820.8 32112.3 177.066
6568.61 30148.2 30165.1 34641.8 34690.4 185.242
6571.44 32778.9 32488.7 37608.5 37313.8 193.158
6574.28 34539 34525.7 39691.1 39674.3 198.335
6577.11 36259 35910 41723.1 41298.3 203.235
6579.94 36931.9 36891.8 42480.7 42437.7 205.137
6582.78 37484.4 37593.8 43109.4 43257.3 206.771
6585.61 38365 38201.1 44181.7 43976.2 209.098
6588.45 38753.7 38688.1 44637.5 44556.2 210.158
6591.28 38945.6 38970.2 44849.5 44875.1 210.763
6594.11 39211.1 39317.2 45138.4 45240.7 211.493
6596.95 39794.9 39615.9 45734.1 45560.4 213.013
6599.78 39841.7 39937.8 45808.5 45904.6 213.183
6602.61 40176.8 40132.2 46171 46140.7 214.037
6605.44 40378.1 40227.6 46442.6 46235.5 214.555
6608.28 40127.7 40138.9 46093 46141.6 213.932
6611.11 39910.8 40122.9 45889.3 46084.7 213.332
6613.94 40330.2 40176.3 46271.6 46135 214.495
6616.77 40288 40420.6 46244.1 46374.9 214.381
6619.61 40643.6 40586.4 46609 46549.2 215.309
6622.44 40827.4 40633.2 46794.4 46561.6 215.772
6625.27 40428.5 40566.1 46281.5 46471.6 214.734
6628.1 40442.4 40286.7 46339 46152.3 214.804
6630.93 39989 40114.3 45836.6 45950 213.558
6633.76 39911.3 40029 45674.4 45858.4 213.372
6636.59 40186.8 40144.7 46064.2 45985.5 214.087
6639.42 40336 40356.1 46217.9 46233.3 214.477
6642.26 40545.4 40300.5 46417.8 46131.9 215.009
6645.09 40020 40237.1 45760 46037.4 213.67
6647.92 40146 40100.8 45934.4 45857.6 214.006
6650.75 40136.4 40198.8 45878.3 45954 213.952
6653.58 40313.9 40306.7 46049.5 46053.4 214.462
6656.41 40469.8 40518.6 46232.3 46282.1 214.859
6659.24 40772.2 40575.4 46564.4 46319.7 215.644
6662.07 40484.1 40590.6 46162.3 46316.6 214.889
6664.9 40515.6 40417.5 46223.2 46100.4 214.962
6667.72 40252.8 40409.3 45915.8 46101.3 214.301
6670.55 40459.3 40319 46165 45994.8 214.815
6673.38 40244.8 40104.4 45903.6 45721.3 214.241
6676.21 39609.1 39937.1 45095.2 45515.5 212.582
6679.04 39957.3 39867.1 45547.7 45402.6 213.48
6681.87 40034.7 40044.7 45565 45602.8 213.647
6684.7 40142 40080.9 45695.8 45626.9 213.97
6687.53 40066 40058.4 45620.1 45604.5 213.786
6690.35 39967.2 40149.1 45497.7 45696 213.508
6693.18 40414.1 40287.6 45970.2 45824.6 214.718
6696.01 40481.5 40329.3 46005.9 45827.9 214.914
6698.84 40092.3 40120.9 45507.5 45563.5 213.866
6701.66 39788.9 39888 45177.1 45303.5 213.047
6704.49 39782.8 39838.3 45226 45235.5 212.98
6707.32 39943.1 39849.6 45303.3 45233.4 213.415
6710.14 39822.9 39838.5 45170.9 45193.4 213.156
6712.97 39749.5 39834.4 45106.2 45185.7 212.922
6715.8 39930.8 39758.8 45280.1 45069.7 213.423
6718.62 39596.1 39660.5 44823 44937.8 212.542
6721.45 39454.7 39600.2 44710.3 44854.6 212.093
6724.28 39749.8 39659.9 45030.6 44907.7 212.914
6727.1 39775.2 39727.4 44982.1 44957.3 213.059
6729.93 39657.1 39658.1 44859.2 44860.9 212.681
6732.75 39541.9 39615.9 44741.5 44803.2 212.376
6735.58 39648.6 39641.2 44808.8 44812.8 212.665
6738.41 39733 39511.2 44888 44639.6 212.88
6741.23 39151.9 39463.9 44221.9 44569.6 211.293
6744.06 39506.8 39224.7 44598.7 44290.2 212.255
6746.88 39015.2 39314.7 44049.8 44377 210.95
6749.7 39422.1 39191.8 44482.3 44228 212.057
6752.53 39138.2 39205.2 44151.8 44212 211.267
6755.35 39055.3 39123.9 44001.9 44111.8 211.06
6758.18 39178.3 39170.2 44181.6 44136.9 211.387
6761 39277 39164.9 44227.2 44111.6 211.713
6763.83 39039.5 39191.9 43926.1 44109.2 211
6766.65 39259.2 39037.1 44174.2 43936 211.647
6769.47 38812.5 39049.9 43707.8 43946.6 210.423
6772.3 39077.9 38917.6 43957.8 43786.3 211.139
6775.12 38862.4 38946.9 43693.5 43807.6 210.518
6777.94 38900.4 39099.3 43771.6 43967.6 210.622
6780.77 39535 39134.1 44437.8 44001.6 212.348
6783.59 38967 39202.3 43795.4 44059.4 210.823
6786.41 39104.8 37964.1 43944.9 43748.2 211.167
6789.23 35820.6 36840.6 43504.3 43590.4 202.097
6792.06 35596.3 35648.5 43321.9 43321.1 201.447
6794.88 35528.5 35586.6 43137.2 43262.7 201.294
6797.7 35635.1 35571.5 43329 43208.9 201.571
6800.52 35550.7 35708.8 43160.5 43336.6 201.326
6803.34 35940.6 35749 43520.4 43331.5 202.464
6806.16 35755.6 35783.9 43313.7 43336 201.956
6808.99 35655.5 35658.4 43174 43179 201.643
6811.81 35564 35504.7 43049.4 42969.4 201.4
6814.63 35294.5 35529 42684.9 42973.9 200.645
6817.45 35728.5 35476.7 43187.3 42837.3 201.876
6820.27 35407.2 35464.2 42639.8 42735.8 200.921
6823.09 35257.1 35336.7 42380.4 42554.3 200.437
6825.91 35346 35338.8 42642.8 42550.9 200.592
6828.73 35413.2 35480.6 42629.5 42758.4 200.714
6831.55 35682.5 35505.5 43002.9 42732.7 201.499
6834.37 35420.9 35388.4 42565.7 42592.1 200.773
6837.19 35061.6 35050 42207.9 42142.8 199.815
6840.01 34667.4 34878.8 41655 41885.7 198.678
6842.83 34907.5 34850.3 41794.1 41803.4 199.486
6845.65 34976 34901.7 41961.2 41792.4 199.698
6848.47 34821.6 34810.7 41622 41701.9 199.263
6851.28 34634.4 34602.6 41522.4 41464.2 198.751
6854.1 34351.7 34558.3 41248.2 41375.4 197.876
6856.92 34689 34550.4 41355.5 41273 198.839
6859.74 34610.6 34097.6 41215.2 40716.9 198.481
6862.56 32993.3 32323.3 39579.9 38779 193.731
6865.38 29366.1 29773 35541.8 35909.3 182.73
6868.19 26959.6 27753.4 32606.2 33495.1 175.155
6871.01 26934.5 27146 32337.2 32596.4 175.078
6873.83 27544 28020.6 32845.9 33342.1 177.068
6876.65 29583.4 29397.8 34843.3 34816.7 183.58
6879.46 31066.1 30616.7 36760.8 36178.7 188.168
6882.28 31200.5 30977.6 36932 36671.9 188.537
6885.1 30666.2 30785.5 36322.8 36498.1 186.929
6887.91 30489.8 30556.1 36239.5 36249.8 186.36
6890.73 30512.4 30495.9 36187.2 36167.7 186.507
6893.55 30485.4 30494.7 36076.4 36120.9 186.361
6896.36 30486.2 30632.1 36099 36237 186.308
6899.18 30924.6 30681.9 36535.7 36285.3 187.723
6901.99 30634.9 31218 36221.2 36882.1 186.851
6904.81 32094.4 31494.2 37889.4 37225 191.19
6907.62 31753.4 31866.5 37564.3 37635.2 190.193
6910.44 31751.9 31876 37451.9 37625.7 190.158
6913.25 32122.7 32134.6 37860.9 37843 191.292
6916.07 32529.2 32441 38216.3 38176.3 192.468
6918.88 32671.1 32647.4 38451.6 38401.6 192.909
6921.7 32742 32718 38536.8 38468.6 193.099
6924.51 32740.9 32775.5 38417.4 38531.1 193.104
6927.33 32843.5 32797.8 38639.2 38496.1 193.426
6930.14 32809.1 32837.4 38431.8 38549 193.367
6932.96 32859.5 32814.1 38576.1 38488.9 193.483
6935.77 32773.6 32757.1 38458.7 38444 193.244
6938.58 32638.2 32662.2 38297.3 38301.6 192.858
6941.4 32574.6 32552.7 38148.7 38134 192.606
6944.21 32445.3 32549.3 37956.1 38091.5 192.202
6947.02 32628.1 32604.9 38169.6 38109 192.756
6949.84 32741.3 32562 38201.3 38056.3 193.122
6952.65 32316.7 32525.1 37797.9 37915.5 191.859
6955.46 32517.4 32507.7 37747.3 37852.7 192.534
6958.27 32688.8 32595.9 38012.9 37924.2 193.031
6961.09 32581.3 32760.4 38012.4 38127.4 192.709
6963.9 33011.1 32746.6 38356.9 38102.5 193.963
6966.71 32647.4 32799.4 37938.3 38093.8 192.947
6969.52 32739.8 32589.2 37986.2 37841.6 193.187
6972.33 32380.3 32444.6 37600.2 37648.7 192.098
6975.14 32213.7 32215.2 37359.6 37358.1 191.569
6977.95 32051.5 32143.3 37114.6 37249.9 191.053
6980.77 32164.8 32119.5 37275.6 37186.1 191.451
6983.58 32142.1 32094.9 37168.1 37145.7 191.424
6986.39 31978 32035.9 36993.4 37018.2 190.907
6989.2 31987.8 31962.6 36893.2 36896.1 191.027
6992.01 31921.9 31911.5 36801.8 36810 190.771
6994.82 31824.7 31883 36735.2 36765.8 190.468
6997.63 31902.3 31755.7 36760.5 36658.1 190.731
7000.44 31540.3 31579.5 36478.5 36442.5 189.613
7003.25 31296.1 31477.1 36088.5 36301.2 188.908
7006.06 31594.8 31464.3 36336.6 36236.4 189.772
7008.87 31502.1 31497.5 36284.1 36256.3 189.464
7011.67 31395.7 31332.5 36148.1 36062.7 189.161
7014.48 31099.6 31247.5 35755.8 35984.9 188.233
7017.29 31247.3 31241.7 36050.8 35966.1 188.783
7020.1 31378.2 31276 36091.6 36014 189.159
7022.91 31202.4 31358.1 35899.7 36036.7 188.621
7025.72 31493.7 31261.3 36118.8 35863.1 189.478
7028.53 31087.9 31279.6 35570.9 35834.1 188.297
7031.33 31257.2 31068.9 35812.5 35571.5 188.802
7034.14 30861.6 31029.2 35331.1 35503.7 187.589
7036.95 30968.7 30943.1 35367.4 35383.8 187.919
7039.76 30999.1 31002.5 35452.8 35408.2 188.02
7042.56 31039.7 31045.3 35404.4 35444.3 188.123
7045.37 31097.2 31053.4 35475.6 35429.6 188.26
7048.18 31023.3 31004.5 35408.7 35364.8 188.043
7050.98 30893.1 30964 35210.2 35264.9 187.643
7053.79 30975.6 30940.6 35175.8 35189.9 187.978
7056.6 30953.2 30964 35183.6 35206.4 187.871
7059.4 30963.3 30794.4 35259.9 35045.6 187.922
7062.21 30466.7 30622.2 34693.3 34854.3 186.38
7065.01 30436.7 30477.3 34609.6 34660.7 186.304
7067.82 30528.6 30507.5 34679.2 34677.3 186.588
7070.62 30557.2 30512.3 34743.1 34645.1 186.683
7073.43 30451.1 30629.5 34512.9 34735.7 186.355
7076.23 30880.2 30564.9 34951.1 34586.9 187.648
7079.04 30363.4 30551 34296.6 34545.7 186.097
7081.84 30409.3 30327.4 34389.4 34286.8 186.207
7084.65 30209.6 30250.5 34174.4 34207 185.61
7087.45 30132.7 30100.2 34057.3 34058.5 185.392
7090.26 29958.3 30040.6 33943.7 33974.5 184.879
7093.06 30030.8 29968.8 33922.5 33872.7 185.052
7095.86 29917.4 29993.4 33751.9 33839.9 184.709
7098.67 30031.8 29917.2 33845.4 33719.5 185.123
7101.47 29802.2 30010.4 33561.2 33789.6 184.377
7104.27 30197 30081.7 33962.2 33836.2 185.625
7107.08 30245.8 30038.9 33985 33758.6 185.718
7109.88 29673.7 29788 33328.5 33455.1 183.961
7112.68 29444.4 29499 33051.7 33101.5 183.249
7115.49 29379 29389.6 32924.3 32940.2 183.032
7118.29 29345.3 29242.9 32844.6 32761.5 182.934
7121.09 29004.5 29226.8 32515.6 32755.5 181.869
7123.89 29330.5 29194.9 32906.4 32683.1 182.886
7126.69 29249.8 29284.7 32627.2 32766.8 182.629
7129.49 29273.9 29339.6 32766.8 32787.6 182.709
7132.3 29495 29312.5 32968.8 32766.9 183.407
7135.1 29168.6 29278 32565.1 32701.2 182.394
7137.9 29170.4 29254.4 32569.8 32633.5 182.418
7140.7 29424.2 29288.7 32765.6 32667.2 183.178
7143.5 29271.6 29250.6 32666.2 32641.3 182.718
7146.3 29056.1 29153.8 32491.9 32557.3 182.04
7149.1 29133.8 28969.1 32513.8 32360.6 182.265
7151.9 28717.4 28972.5 32075.9 32297.2 180.972
7154.7 29066.3 28849 32301.8 32103.9 182.083
7157.5 28763.2 28796.5 31934.1 32008.8 181.132
7160.3 28560.1 28447.1 31790.6 31660 180.429
7163.1 28017.9 28111.8 31255.2 31305.5 178.701
7165.9 27757.3 27767.8 30870.8 30917.9 177.952
7168.7 27528.2 27484 30627.7 30541.2 177.138
7171.5 27166.5 27359 30125.1 30366 175.97
7174.3 27382.5 27218.7 30345.3 30180.7 176.707
7177.09 27107.2 27192.8 30071.6 30155.9 175.817
7179.89 27088.8 26905.6 30050.8 29821.4 175.753
7182.69 26520.7 26589.5 29341.7 29449.9 173.892
7185.49 26159 26285.1 28957.1 29076.5 172.678
7188.29 26175.7 26192.2 28930.7 28952.1 172.732
7191.08 26242 26399.9 28968.6 29151 172.985
7193.88 26782.1 26587.4 29553.9 29340.1 174.734
7196.68 26738.1 26734.5 29498 29510.6 174.652
7199.48 26683.3 26668.3 29480 29424.8 174.464
7202.27 26583.4 26623.4 29296.5 29333.2 174.112
7205.07 26603.6 26652.2 29223 29329 174.159
7207.87 26769.6 26836 29467.6 29493.7 174.709
7210.66 27134.8 27012.3 29790.4 29675.3 175.911
7213.46 27132.4 27069.6 29767.9 29727 175.956
7216.25 26941.6 27046.7 29622.7 29697.1 175.262
7219.05 27066.2 26949.6 29700.9 29566.4 175.691
7221.84 26841 26901.5 29375.8 29489.2 174.938
7224.64 26797.3 26733.5 29391 29295.7 174.83
7227.44 26562.1 26527.1 29120.4 29063.2 174.095
7230.23 26222 26257.3 28678.4 28737.8 172.878
7233.02 25987.7 26115.2 28414.7 28527.9 171.961
7235.82 26135.9 25951 28490.6 28333.6 172.364
7238.61 25729.3 25848.3 28095.6 28187.7 170.692
7241.41 25679.7 25805.4 27977 28154.4 170.606
7244.2 26007 25905.4 28390.7 28247.7 171.727
7247 26029.5 25932.3 28375.5 28276.6 171.953
7249.79 25760.5 25909.6 28063.5 28231.8 171.14
7252.58 25938.9 25897.6 28256.4 28181.7 171.823
7255.38 25993.5 26038.5 28225.3 28310.5 172.088
7258.17 26183.1 26069.6 28449.7 28327.1 172.735
7260.96 26032.2 25934.8 28306.3 28201.9 172.285
7263.75 25589 25785.6 27849.7 28014.4 170.789
7266.55 25735.7 25744.1 27887.1 27905.1 171.228
7269.34 25907.6 25697.6 27978.4 27784.9 171.712
7272.13 25449.5 25452.3 27489.1 27504.3 169.97
7274.92 24999.9 25305.3 27045.3 27392 168.387
7277.72 25466.5 25419.7 27641.5 27508.6 169.933
7280.51 25792.7 25486.4 27839.1 27595.5 171.187
7283.3 25200 25478.8 27305.7 27548 169.186
7286.09 25443.7 25164.5 27499.3 27215.8 170.128
7288.88 24849.7 25126.5 26842.5 27141.4 168.195
7291.67 25086.2 25129.7 27082.3 27093.2 169.023
7294.46 25453.1 25370.3 27354.8 27300.3 170.283
7297.25 25571.7 25417.7 27463.7 27323.5 170.687
7300.04 25228.4 25354.4 27152 27272.5 169.511
7302.83 25263 25161.5 27201.7 27096.8 169.596
7305.62 24993 25183.6 26936.6 27078.8 168.718
7308.41 25294.7 25102 27097.9 26953.6 169.631
7311.2 25018.3 25200.2 26826.1 27010.6 168.661
7313.99 25287.7 25225.2 27107.6 27028.2 169.492
7316.78 25369.5 25346.8 27150.8 27164.7 169.727
7319.57 25383.2 25395.3 27235.8 27215.8 169.873
7322.36 25433.1 25341.9 27260.8 27146.1 170.121
7325.15 25209.5 25327.7 26941.7 27096.4 169.416
7327.94 25340.5 25246.5 27086.7 26967.1 169.834
7330.72 25189.5 25303.2 26872.8 26993.6 169.371
7333.51 25379.4 25364.3 27021.4 27043.9 169.92
7336.3 25523.8 25484.2 27237.5 27183.8 170.263
7339.09 25549.5 25488.1 27292.5 27193.3 170.276
7341.87 25390.9 25372.1 27050 27086 169.864
7344.66 25175.8 25147.2 26915.5 26826.4 169.239
7347.45 24875 24941.3 26513.6 26601.1 168.297
7350.24 24773 24872.3 26374.2 26481 167.959
7353.02 24968.8 24899.5 26555 26472.5 168.646
7355.81 24956.6 24950.7 26488.3 26514.8 168.574
7358.59 24926.8 24901.6 26501.2 26441.2 168.502
7361.38 24821.4 24850.5 26334.1 26379.5 168.072
7364.17 24803.4 24757.7 26303 26266.2 167.93
7366.95 24648.4 24696.2 26161.4 26211.7 167.411
7369.74 24636.9 24646.1 26170.7 26164.1 167.326
7372.52 24652.8 24703.1 26160.3 26184.1 167.483
7375.31 24819.6 24679.4 26221.2 26112.2 168.158
7378.09 24565.8 24671.4 25955.1 26073.3 167.355
7380.88 24628.7 24467.3 26043.6 25851.2 167.594
7383.66 24207.6 24323.3 25554.8 25690.3 166.153
7386.45 24133.6 24108 25472.5 25470.8 165.851
7389.23 23982.9 23951.1 25384.9 25285.4 165.265
7392.01 23737 23973.8 24998.6 25293.1 164.454
7394.8 24201.7 24046.9 25495.9 25312.1 165.929
7397.58 24201.9 24128.6 25441.8 25404.7 165.994
7400.36 23982.1 24032.7 25276.4 25334.2 165.191
7403.15 23914.1 23860.9 25284.3 25182.2 164.961
7405.93 23686.4 23775.6 24986 25044.2 164.278
7408.71 23726.1 23752.7 24862.4 24973.7 164.462
7411.5 23845.6 23770.4 25072.8 24966.9 164.909
7414.28 23739.5 23673.7 24965.5 24878.8 164.529
7417.06 23436.2 23618.7 24598.2 24796 163.517
7419.84 23680.5 23496.6 24824.2 24618.2 164.374
7422.62 23373 23518 24432.4 24609.7 163.282
7425.41 23500.5 23509.6 24572.5 24572.3 163.708
7428.19 23655.5 23696.1 24712.1 24752.1 164.2
7430.97 23932.3 23744.2 24971.7 24806.5 165.099
7433.75 23644.9 23782.1 24735.8 24857.9 164.106
7436.53 23769.1 23586 24866.3 24658.6 164.553
7439.31 23344.1 23476.3 24373.6 24518.9 163.091
7442.09 23315.6 23337.2 24316.7 24323.7 163.029
7444.87 23351.8 23307.1 24280.7 24265.9 163.201
7447.65 23253.7 23223 24200.3 24151 162.848
7450.43 23063.5 23284.3 23972 24202.9 162.208
7453.21 23535.7 23411.2 24436.5 24308.9 163.852
7455.99 23634.3 23537.1 24518.1 24425.2 164.253
7458.77 23441.3 23412.3 24320.9 24314.4 163.513
7461.55 23161.3 23277.2 24104.3 24183.9 162.503
7464.33 23229 23198.7 24126.5 24084.8 162.652
7467.11 23205.9 23284.9 24023.7 24130.2 162.605
7469.88 23419.8 23310 24240.4 24120 163.266
7472.66 23304.4 23294.5 24095.9 24091.8 162.908
7475.44 23159.3 23299.2 23939.2 24089.3 162.305
7478.22 23433.9 23276.6 24232.9 24059.4 163.297
7481 23236.6 23249.3 24006.1 24023.2 162.59
7483.77 23077.3 23093.6 23830.5 23851.3 162.094
7486.55 22966.7 23003.3 23717.2 23769.1 161.757
7489.33 22966 22848.2 23759.5 23625.6 161.801
7492.1 22612 22579 23400 23363.2 160.516
7494.88 22159 22426.9 22930 23156.4 158.939
7497.66 22509.7 22335.7 23139.3 22988.4 160.236
7500.43 22338.3 22491 22895.8 23104.8 159.643
7503.21 22625.1 22510.8 23279.3 23109.3 160.618
7505.98 22569.1 22428.9 23152.7 23044.9 160.448
7508.76 22092.5 22352.5 22702.7 22938.5 158.711
7511.54 22395.7 22234.5 22959.9 22792.1 159.859
7514.31 22215.1 22325.2 22713.5 22856 159.176
7517.09 22364.7 22329.8 22894.5 22839.3 159.565
7519.86 22409.6 22423 22910 22937.2 159.632
7522.63 22494.8 22445.9 23007.1 22960.4 159.885
7525.41 22433.4 22425.9 22964.3 22949.5 159.666
7528.18 22349.4 22274.7 22877.2 22780.8 159.404
7530.96 22041.2 22270.3 22501 22753.3 158.433
7533.73 22420.4 22053.2 22881.8 22490.9 159.853
7536.5 21698.1 22045.2 22089.9 22456 157.324
7539.28 22017.1 21894.9 22396.2 22294.9 158.451
7542.05 21969.7 21998.2 22398.4 22402.3 158.27
7544.82 22007.9 22001.6 22412.3 22400.3 158.436
7547.6 22027.2 22086.7 22390.3 22484.4 158.489
7550.37 22224.9 22081.8 22650.6 22454.7 159.226
7553.14 21993.3 22044.7 22323.2 22373.3 158.321
7555.91 21915.9 21940.9 22146.1 22203.3 158.058
7558.69 21913.5 21871.5 22140.7 22096.1 158.04
7561.46 21785.2 21869.3 22001.6 22079.5 157.614
7564.23 21909.2 21878.2 22096 22103.2 158.029
7567 21940.3 21825.7 22211.9 22076 158.01
7569.77 21627.6 21743 21920.2 22009.3 156.889
7572.54 21661.2 21598.8 21895.8 21853.5 157.012
7575.31 21507.6 21594.8 21744.7 21816.4 156.528
7578.08 21615.7 21415.8 21808.7 21613.3 156.99
7580.85 21124.1 21231.2 21286.6 21392.1 155.142
7583.62 20953.9 20843.5 21081.1 20996.6 154.553
7586.39 20452.6 20235.2 20622.1 20410.5 152.695
7589.16 19299.2 18647.7 19528.3 18897.9 148.282
7591.93 16191.3 16119.9 16543.3 16417 135.764
7594.7 12869.3 12996.6 13179.5 13299.6 120.998
7597.47 9929.38 10220 10176 10445.2 106.26
7600.24 7861.31 8244.72 7980.18 8380.8 94.3856
7603.01 6943.48 7265.92 6986.25 7298.97 88.7537
7605.78 6992.97 7282.1 6930.48 7238.05 89.0675
7608.55 7909.86 8238.38 7797.43 8105.26 94.7726
7611.31 9812.3 10160.8 9587.86 9957.27 105.673
7614.08 12760.3 12271.4 12486.5 12064.2 120.534
7616.85 14241.5 13800.5 14118.1 13655.3 127.308
7619.62 14399.7 13884.3 14361.3 13853 128.027
7622.38 13011.6 13198.5 13079.7 13214.3 121.658
7625.15 12184.2 12297.5 12201.9 12300.9 117.757
7627.92 11696.6 11880.5 11621.1 11813.2 115.321
7630.68 11760.7 11877.4 11616.5 11755 115.691
7633.45 12174.9 12123.2 12027.2 11969.7 117.724
7636.22 12434.1 12552.5 12265.3 12391 119.077
7638.98 13048.6 13032.5 12880.4 12855.2 121.923
7641.75 13614.7 13541 13419.9 13347.5 124.515
7644.51 13959.7 14081.4 13742.2 13875.9 126.144
7647.28 14669.8 14640 14465.7 14427.9 129.304
7650.04 15290.3 15225.9 15075.9 14996.4 132.05
7652.81 15717.6 15707.9 15447.4 15470.2 133.849
7655.57 16115.8 16117.2 15887.3 15851.1 135.506
7658.34 16518.2 16414.8 16218.6 16154.3 137.181
7661.1 16610.3 16755.7 16356.9 16456.3 137.622
7663.87 17138.4 17045.1 16793.4 16740.5 139.721
7666.63 17386.4 17490 17071 17135.4 140.807
7669.39 17945.3 17905.2 17541.6 17542.8 143.107
7672.16 18383.7 18275.6 18015.8 17881.3 144.831
7674.92 18497.6 18557 18086.5 18146.9 145.284
7677.68 18789.6 18703.7 18338.3 18260.2 146.414
7680.45 18824 18856.9 18355.8 18404.6 146.572
7683.21 18957.2 19012.3 18519.8 18550 147.014
7685.97 19255.7 19108.3 18774.4 18633.9 148.241
7688.73 19112 19197.1 18607.6 18710.1 147.613
7691.5 19223.6 19171.6 18748.4 18677.6 148.032
7694.26 19179.2 18698 18676.9 18658.9 147.928
7697.02 17691.1 18238.5 18551.5 18611.8 142.045
7699.78 17845.1 17765.5 18606.9 18575.5 142.641
7702.54 17760.1 17819 18568.2 18571.3 142.281
7705.3 17851.8 17731.5 18538.9 18486.9 142.583
7708.06 17582.6 17633.2 18353.7 18383.9 141.314
7710.82 17465.4 17513.9 18258.9 18315.7 140.57
7713.58 17493.9 17552.8 18334.4 18369.1 140.602
7716.34 17699.2 17602 18513.8 18394 141.467
7719.1 17612.8 17761.9 18333.8 18517.7 141.255
7721.86 17973.8 17750.2 18705.4 18498.6 142.874
7724.62 17663.9 17801.9 18456.6 18528.1 141.726
7727.38 17767.9 17704.3 18422.4 18387.2 142.208
7730.14 17681.2 17716.6 18282.5 18339.2 141.911
7732.9 17700.8 17746.8 18312.8 18345.4 141.987
7735.66 17858.4 17679.6 18441 18249.2 142.666
7738.42 17479.7 17545.6 17994 18070.6 141.178
7741.17 17298.7 17246.2 17777 17755.5 140.379
7743.93 16960 17050.6 17495.6 17565.2 138.804
7746.69 16893 16932 17423 17443.7 138.279
7749.45 16943.2 16962.3 17412.6 17476.4 138.408
7752.2 17050.8 17018.2 17593.6 17507.4 138.94
7754.96 17060.5 16999 17516.2 17495.4 139.04
7757.72 16885.7 16992.5 17376.6 17445.9 138.477
7760.47 17031.3 16964.2 17445.1 17404.4 139.18
7763.23 16975.6 16895.6 17391.6 17291.9 139.011
7765.99 16679.8 16745.6 17038.9 17113 137.839
7768.74 16581.3 16369.6 16908.6 16706.3 137.414
7771.5 15847.7 16144.8 16171.3 16431.8 134.309
7774.25 16005.5 15928.9 16215.7 16156.1 134.916
7777.01 15933.4 16053.7 16081.4 16200.7 134.622
7779.77 16222.1 16203.9 16305.2 16301.7 135.898
7782.52 16456.3 16413.9 16518.7 16479.8 136.847
7785.27 16563.1 16540.6 16615.5 16624 137.332
7788.03 16602.4 16692.2 16737.8 16792.7 137.336
7790.78 16910.9 16717.2 17025 16831 138.52
7793.54 16638.2 16756.8 16730.4 16825.9 137.343
7796.29 16721.2 16631.5 16722.4 16702.2 137.817
7799.04 16535 16692.2 16653.8 16703.9 137.166
7801.8 16820.5 16675.8 16735.7 16684.3 138.39
7804.55 16671.8 16662.6 16663.5 16603.4 137.711
7807.3 16495.4 16539.7 16411.1 16470 137.008
7810.06 16452 16405 16335.5 16317.9 136.832
7812.81 16267.7 16500.8 16207.1 16395.5 136.062
7815.56 16782.6 16557 16643.9 16440.7 138.063
7818.31 16620.6 16683.4 16471.1 16523 137.315
7821.07 16647 16598.2 16454.1 16463.6 137.333
7823.82 16526.9 16561 16465.8 16427 136.902
7826.57 16509 16442.9 16361.1 16316.8 136.967
7829.32 16292.7 16275.7 16123.4 16098.2 136.199
7832.07 16025.4 16193 15809.9 15986.5 135.164
7834.82 16260.8 16102.8 16026.1 15861.7 136.089
7837.57 16022.3 16220.6 15749.1 15905.6 135.056
7840.32 16378.8 16191.2 15941.8 15849.5 136.548
7843.07 16172.6 16272.2 15857.8 15859.5 135.636
7845.82 16265.2 16176.7 15779.1 15772.4 135.937
7848.57 16092.4 16093.2 15680.3 15676.5 134.898
7851.32 15922.1 15998.5 15570.2 15630.4 134.12
7854.07 15981 15962.9 15640.7 15615.9 134.377
7856.82 15985.5 15850.7 15636.8 15503 134.419
7859.57 15585.7 15748.4 15231.4 15357 132.866
7862.32 15674.1 15581.2 15202.8 15126.3 133.323
7865.07 15483.9 15596.5 14944.7 15081.3 132.525
7867.81 15631.6 15682.4 15096.5 15183 133.121
7870.56 15931.9 15757.4 15507.9 15241.7 134.417
7873.31 15708.8 15788.5 15120.7 15262.6 133.561
7876.06 15724.7 15552.6 15159.3 15015.9 133.624
7878.8 15224.3 15516.6 14767.7 14956.5 131.525
7881.55 15600.8 15508.6 14942.5 14930.7 133.138
7884.3 15700.8 15558.1 15081.9 14926.2 133.521
7887.04 15372.7 15562.7 14754.3 14914.9 132.149
7889.79 15614.5 15333.2 14908.4 14688.5 133.207
7892.54 15012.3 15223.2 14402.8 14534.8 130.688
7895.28 15042.7 15044.6 14293.2 14338.1 130.885
7898.03 15078.9 15139.6 14318.4 14356.3 131.098
7900.77 15297.1 15158.4 14457.3 14320 132.074
7903.52 15099.2 15202.4 14184.2 14302.7 131.163
7906.26 15210.8 15152 14266.6 14236.2 131.48
7909.01 15146.1 15071.1 14257.6 14198 130.871
7911.75 14856.4 15018.8 14069.7 14208.1 129.413
7914.5 15054.1 14897.9 14296.9 14170.2 130.15
7917.24 14783.3 14861.2 14144 14123.7 128.994
7919.99 14746.3 14665.1 13930 13891.3 129.132
7922.73 14465.9 14535.4 13600 13698.2 128.114
7925.47 14394 14430.7 13564.6 13594.1 127.836
7928.22 14432.1 14314.1 13617.8 13493 128.041
7930.96 14116.3 14167 13296.7 13315 126.641
7933.7 13952.7 14014.6 13030.7 13127.8 126.044
7936.44 13974.7 14017.4 13056.1 13054.3 126.109
7939.19 14124.7 14047.3 13076 13061.6 126.895
7941.93 14042.5 14059.3 13052.7 13038.6 126.427
7944.67 14010.8 14112.1 12987.2 13072.9 126.252
7947.41 14283 14101.1 13178.7 13028.7 127.451
7950.15 14009.6 14243.8 12920.2 13151.3 126.236
7952.89 14438.7 14366.7 13355 13246 128.198
7955.64 14651.7 14465.6 13463 13309.1 129.144
7958.38 14306.4 14419.7 13109.5 13254.8 127.549
7961.12 14300.9 14232.1 13191.9 13114.6 127.284
7963.86 14089 14212.7 13042.4 13127.9 126.04
7966.6 14248 14256.9 13149.3 13145.1 127.003
7969.34 14433.6 14380.6 13243.7 13191.6 128.002
7972.08 14460.1 14342.6 13181.7 13102.7 128.231
7974.82 14134.2 14287.2 12882.6 13033.5 126.719
7977.55 14267.4 14183.8 13036.4 12925.9 127.257
7980.29 14149.9 14171.9 12858.9 12885.7 126.778
7983.03 14098.4 14121.4 12761.9 12792 126.639
7985.77 14116 14112.3 12755.1 12771.2 126.639
7988.51 14122.5 14126.3 12796.4 12800.1 126.447
7991.25 14140.4 14092.1 12848.8 12815 126.396
7993.98 14013.5 14083.1 12799.8 12814.1 125.775
7996.72 14095.3 14039.8 12793.8 12758.3 126.368
7999.46 14010.7 14041.1 12681.4 12693.6 126.192
8002.2 14017.2 14000.7 12605.7 12613.3 126.391
8004.93 13974.3 14013 12552.8 12575.5 126.218
8007.67 14047.4 14036.4 12568.1 12585.9 126.496
8010.41 14087.6 14073.4 12636.8 12579.4 126.663
8013.14 14085.3 14080.8 12533.3 12561 126.586
8015.88 14069.7 14007.6 12512.8 12454.1 126.523
8018.61 13868 13907.2 12316.2 12388 125.562
8021.35 13784 13755.9 12335.1 12290.6 125.109
8024.09 13615.9 13735.3 12220.4 12307.1 124.156
8026.82 13806.1 13689.4 12365.7 12234.7 125.013
8029.55 13646.3 13713.2 12117.9 12214.5 124.532
8032.29 13687.1 13652.4 12159.8 12127 124.755
8035.02 13623.7 13708.8 12103.4 12137.3 124.658
8037.76 13815.5 13640.3 12148.6 12058.5 125.548
8040.49 13481.8 13568.2 11923.6 11947.4 123.991
8043.23 13407.3 13469.3 11770.1 11858.7 123.666
8045.96 13518.8 13451.2 11882.5 11794.6 124.111
8048.69 13427.4 13462.6 11731.2 11791.9 123.678
8051.42 13441.6 13449.5 11761.8 11767.6 123.698
8054.16 13479.5 13427.7 11809.9 11784.7 123.94
8056.89 13361.9 13342.8 11782.4 11717.1 123.296
8059.62 13186.8 13263.6 11559 11641.7 122.395
8062.35 13242.2 13282.1 11583.7 11619.4 122.609
8065.09 13417.3 13279.2 11715.6 11619.7 123.588
8067.82 13178.1 13295.2 11559.8 11613.3 122.483
8070.55 13290.1 13234.5 11564.6 11568.2 123.125
8073.28 13235.2 13231 11580.1 11521.9 122.826
8076.01 13167.7 13199.6 11420.8 11470.6 122.63
8078.74 13195.9 13094.4 11410.9 11331.5 122.679
8081.47 12919.6 13019.1 11162.8 11240.5 121.396
8084.2 12941.6 12842.8 11147.7 11068.7 121.483
8086.93 12667 12791.9 10895.7 10998.2 120.229
8089.66 12767 12786.3 10951.3 10992.5 120.612
8092.39 12924.9 12869.2 11130.4 11062 121.409
8095.12 12915.5 12859.7 11104.3 11044.6 121.372
8097.85 12738.7 12797.5 10899.1 10987.4 120.469
8100.58 12738.4 12763.4 10958.8 10962.1 120.443
8103.31 12813.2 12695 11028.4 10909.6 120.887
8106.03 12533.3 12672.3 10741.5 10888.8 119.481
8108.76 12670.5 12613.4 10896.5 10763.4 120.168
8111.49 12636.5 12693.4 10652.1 10776.4 120.098
8114.22 12773.2 12685.9 10780.5 10742.5 120.762
8116.95 12647.9 12617.9 10795 10704 120.116
8119.67 12432.7 12479 10536.5 10601.3 119.083
8122.4 12356.4 12376.5 10472.3 10460.2 118.756
8125.13 12340.5 12352.5 10371.9 10437 118.668
8127.85 12360.6 12247.6 10466.9 10330.8 118.744
8130.58 12041.7 12158.1 10153.7 10264.3 117.234
8133.3 12071.9 12061 10172.4 10128.3 117.365
8136.03 12069.3 12142.1 10058.7 10175.6 117.376
8138.76 12285.2 12074.2 10295.8 10106 118.364
8141.48 11868.1 11968.9 9963.62 10041 116.301
8144.21 11753.3 11762.1 9863.68 9875.42 115.764
8146.93 11664.9 11682.4 9798.97 9812.84 115.335
8149.66 11629 11661.2 9775.86 9785.23 115.132
8152.38 11689.7 11645.8 9780.86 9735.93 115.487
8155.1 11618.8 11652.9 9651.07 9711.39 115.154
8157.83 11650.3 11549.8 9702.22 9600 115.301
8160.55 11380.3 11442.4 9446.69 9509.34 113.964
8163.27 11296.6 11301.9 9379.1 9370.24 113.51
8166 11228.6 11301 9284.94 9363.8 113.153
8168.72 11377.9 11348.4 9427.35 9411.73 113.945
8171.44 11438.7 11409 9522.89 9451.49 114.199
8174.17 11410.5 11375.9 9404.24 9400.81 114.111
8176.89 11278.5 11265.8 9275.3 9291.32 113.422
8179.61 11108.4 11149.9 9194.43 9180.98 112.613
8182.33 11062.8 11042.9 9073.23 9103.01 112.407
8185.05 10957.5 11035.8 9041.37 9083.19 111.835
8187.77 11087.1 10962.1 9134.99 9024.27 112.447
8190.49 10841.7 10872.2 8896.46 8928.27 111.169
8193.21 10687.7 10733.7 8753.37 8779.54 110.367
8195.94 10671.8 10663.2 8688.78 8717.05 110.369
8198.66 10630.3 10674.2 8709.01 8717.35 110.116
8201.38 10720.5 10804.5 8754.27 8807.9 110.53
8204.1 11062.7 10907.3 8960.41 8892.17 112.389
8206.81 10938.6 11094.7 8961.84 9020.42 111.729
8209.53 11282.8 11088.1 9139.01 9046.93 113.477
8212.25 11043 11168.5 9039.94 9079.55 112.271
8214.97 11179.6 11094.1 9059.7 9012.74 112.953
8217.69 11059.7 11009.3 8938.58 8903.58 112.353
8220.41 10788.7 10874.2 8712.46 8797.2 110.9
8223.13 10774 10721.2 8740.57 8682.35 110.901
8225.84 10600.7 10618.2 8594.03 8582.36 109.956
8228.56 10480 10556.2 8412.49 8507.51 109.381
8231.28 10587.9 10623.5 8516.01 8529.59 109.927
8234 10802.7 10784 8660.26 8647.91 110.96
8236.71 10961.3 10923.4 8767.48 8742.86 111.851
8239.43 11006.2 10981.7 8800.85 8790.37 112.098
8242.15 10977.7 11010.7 8802.8 8811.55 111.919
8244.86 11048.2 11049.5 8831.01 8820.96 112.283
8247.58 11122.5 11068 8829.07 8815.67 112.615
8250.29 11033.2 11008.2 8786.93 8758.45 112.204
8253.01 10868.8 10917.4 8659.35 8706.65 111.4
8255.72 10850.1 10864.4 8673.68 8655.25 111.297
8258.44 10874.4 10876.4 8632.71 8650.7 111.334
8261.15 10904.8 10944.1 8645.71 8663.34 111.552
8263.87 11053 11067.8 8711.6 8750.68 112.317
8266.58 11245.5 11116 8894.72 8791.59 113.305
8269.3 11049.5 11102.7 8768.44 8777.51 112.275
8272.01 11013 10973 8669.37 8654.45 112.078
8274.72 10856.4 10895 8525.55 8558.48 111.144
8277.44 10815.7 10890.9 8480.51 8543.31 110.75
8280.15 11000.7 10872.2 8623.86 8529.22 111.616
8282.86 10800.2 10890.5 8483.29 8533.08 110.417
8285.57 10870.6 10780.3 8492.08 8416.43 110.627
8288.29 10670 10736.5 8273.92 8364.27 109.758
8291 10669 10712.1 8326.81 8318.84 109.718
8293.71 10797.3 10798.6 8355.78 8413.87 110.441
8296.42 10929.6 10905.6 8559.02 8497.63 111.016
8299.13 10989.8 10930.4 8578.09 8547.98 111.387
8301.84 10871.6 10884 8506.84 8491.86 110.921
8304.56 10790.5 10823.3 8390.64 8438.48 110.665
8307.27 10807.8 10747.4 8417.96 8360.78 110.811
8309.98 10643.8 10740 8273.74 8353.24 110.024
8312.69 10768.3 10718.2 8368.03 8317.56 110.667
8315.4 10742.5 10769 8310.91 8342.23 110.645
8318.11 10796.1 10758.6 8347.76 8315.18 110.918
8320.81 10737.2 10736.1 8286.88 8281.43 110.653
8323.52 10675 10683.6 8209.66 8238.68 110.337
8326.23 10638.7 10605.8 8219.49 8171.83 110.169
8328.94 10503.7 10465.5 8086.34 8049.41 109.452
8331.65 10253.9 10374.2 7842.39 7958.83 108.161
8334.36 10365.1 10317.4 7947.76 7869.32 108.737
8337.06 10333.2 10397.5 7817.82 7897.63 108.382
8339.77 10494.3 10496.8 7927.32 7957.57 108.759
8342.48 10662.9 10634.4 8127.58 8101.74 109.14
8345.19 10746 10701.2 8250.32 8202.74 109.456
8347.89 10694.6 10678.2 8230.32 8209.97 109.301
8350.6 10594 10606.9 8149.26 8131.12 109.081
8353.31 10532.2 10560.5 8013.78 8068.24 108.991
8356.01 10555.3 10612.3 8041.67 8060.12 109.41
8358.72 10749.4 10649.1 8124.92 8074.8 110.554
8361.42 10642.4 10642.7 8057.83 8055.93 110.011
8364.13 10536.3 10571.4 7985.05 8002.02 109.463
8366.83 10535.6 10574.6 7963.19 7998.93 109.552
8369.54 10651.9 10596.1 8048.54 8008.46 110.201
8372.24 10600.9 10594.2 8013.64 8002.4 109.949
8374.95 10529.7 10588.6 7945.02 7973.67 109.522
8377.65 10635.3 10601.8 7962.36 7960.46 109.997
8380.36 10640.4 10623.6 7973.99 7969.22 110
8383.06 10595 10538.5 7971.32 7912.55 109.669
8385.76 10380.1 10446.9 7792.33 7849.36 108.612
8388.47 10365.6 10351.6 7784.44 7762.11 108.654
8391.17 10309.2 10410.4 7709.56 7754.61 108.362
8393.87 10556.4 10487.5 7769.82 7771.05 109.405
8396.57 10596.8 10567 7833.76 7801.95 109.232
8399.27 10547.9 10521.9 7802.26 7811.35 108.849
8401.98 10421 10449.4 7798.02 7774.18 108.297
8404.68 10379.3 10439.3 7722.26 7776.59 108.353
8407.38 10517.5 10481.4 7809.48 7774.4 109.371
8410.08 10547.5 10520.6 7791.47 7774.45 109.517
8412.78 10496.6 10511.8 7722.41 7763.62 109.209
8415.48 10491.2 10523.4 7776.97 7765.58 109.05
8418.18 10582.3 10577.6 7797.35 7809.8 109.615
8420.88 10659.4 10578.6 7855.06 7783.21 110.145
8423.58 10494.1 10512.7 7697.21 7723.53 109.17
8426.28 10384.7 10461.2 7618.33 7689.93 108.228
8428.98 10504.9 10484.2 7754.27 7708.11 108.563
8431.68 10563.1 10503.8 7751.73 7738.6 108.824
8434.38 10443.5 10448.4 7709.81 7689.16 108.484
8437.08 10338.7 10386.4 7605.95 7625.21 108.29
8439.78 10377 10275.1 7559.88 7514.64 108.746
8442.47 10109.6 10203.2 7378.09 7452.43 107.354
8445.17 10123.1 10076.3 7419.31 7358.33 107.363
8447.87 9996.29 10184.5 7277.59 7418 106.632
8450.57 10434 10238.4 7557.1 7449.36 108.837
8453.26 10284.9 10410.7 7513.37 7541.83 108.036
8455.96 10513.1 10404.6 7555.03 7548.57 109.327
8458.66 10415.8 10341.5 7577.32 7471.21 108.774
8461.35 10095.4 10302.5 7281.29 7442.17 106.843
8464.05 10396.2 10236.7 7467.91 7373.08 108.222
8466.74 10218.3 10226.1 7370.04 7350.23 107.288
8469.44 10063.8 10150.3 7212.74 7304.9 106.604
8472.13 10168.8 10106.2 7331.92 7260.9 107.438
8474.83 10085.9 10122.2 7238.04 7266.18 107.196
8477.52 10112 10202.9 7228.58 7295.1 107.39
8480.22 10410.7 10414.4 7418.68 7437.82 109.053
8482.91 10720.3 10561 7666.22 7545.22 110.637
8485.61 10552.1 10618.5 7550.77 7583.81 109.77
8488.3 10583.2 10432.3 7534.44 7449.46 109.793
8490.99 10161.4 10281.7 7263.17 7337.55 107.602
8493.69 10100.4 10058 7215.05 7184.26 107.227
8496.38 9912.08 9817.36 7074.57 6972.04 106.119
8499.07 9439.65 9607.11 6626.5 6766.36 103.598
8501.76 9469.61 9624.84 6598.01 6726.99 103.611
8504.46 9965.26 9761.92 6956.46 6792.84 106.237
8507.15 9850.88 9960.48 6824.05 6921 105.6
8509.84 10065.3 10006.4 6982.47 6948.81 106.911
8512.53 10103.1 10075.4 7039.9 6994.86 107.254
8515.22 10057.9 10062 6962.19 6983.42 107.168
8517.91 10025 9900.92 6948.16 7030.54 107.015
8520.6 9619.92 9810.41 7181.27 7168.09 104.785
8523.29 9786.34 9726 7374.84 7289.4 105.682
8525.98 9771.75 9684.3 7312.09 7273.16 105.644
8528.67 9494.81 9567.03 7132.54 7175.7 104.107
8531.36 9434.54 9420.64 7082.48 7074.24 103.793
8534.05 9332.59 9345.56 7007.71 7026.84 103.214
8536.74 9269.54 9152.7 6990.34 6879.3 102.778
8539.43 8855.98 8917.43 6639.86 6692.36 100.44
8542.12 8626.76 8644.78 6446.89 6448.34 99.2023
8544.81 8451.6 8537.97 6258.27 6342.16 98.0731
8547.49 8535.54 8662.51 6321.31 6402.76 98.5141
8550.18 9000.38 8930.61 6628.68 6583.48 101.146
8552.87 9255.92 9176.58 6800.46 6756.64 102.66
8555.56 9273.45 9334.16 6840.79 6870.84 102.773
8558.24 9473.12 9408.86 6971.28 6925.78 103.958
8560.93 9480.03 9498.62 6965.26 6970.22 104.034
8563.62 9542.73 9590.58 6974.12 6987.96 104.394
8566.3 9748.98 9705.45 7024.5 7060.53 105.545
8568.99 9824.64 9732.16 7182.98 7096.67 105.934
8571.67 9622.87 9657.81 7082.52 7077.17 104.813
8574.36 9525.93 9557 6966.01 7005.31 104.299
8577.05 9522.19 9542.59 6967.39 6963.33 104.282
8579.73 9579.65 9588.09 6956.59 6970.25 104.534
8582.41 9662.42 9610.28 6986.77 6942.36 105.032
8585.1 9588.76 9606.71 6883.73 6915.16 104.603
8587.78 9568.96 9516.07 6874.98 6845.41 104.416
8590.47 9390.5 9393.24 6777.51 6765.4 103.463
8593.15 9220.27 9207.96 6643.72 6645.96 102.53
8595.83 9013.11 9029.42 6516.66 6472.26 101.353
8598.52 8854.88 8893.32 6256.39 6351.13 100.458
8601.2 8811.96 8844.98 6280.33 6267.17 100.17
8603.88 8868.09 8990.51 6264.79 6359 100.58
8606.56 9291.49 9147.77 6531.89 6458.81 102.986
8609.25 9283.73 9304.93 6579.75 6571.58 102.897
8611.93 9339.57 9358.3 6603.11 6611.2 103.265
8614.61 9451.6 9435.45 6650.72 6631.46 103.834
8617.29 9515.17 9568.51 6640.55 6683.83 104.174
8619.97 9738.76 9625.92 6760.2 6716.08 105.374
8622.65 9623.82 9711.03 6747.48 6765.86 104.69
8625.33 9770.52 9698.69 6789.89 6772.84 105.48
8628.01 9701.72 9764.95 6781.16 6808.98 105.148
8630.69 9822.62 9778.63 6855.87 6804.95 105.688
8633.37 9811.55 9832.43 6777.82 6810.17 105.649
8636.05 9863.12 9867.33 6796.82 6772.83 105.931
8638.73 9927.31 9897.31 6743.84 6773.95 106.304
8641.41 9901.5 9888.66 6781.19 6729.17 106.265
8644.09 9837.15 9768.8 6662.46 6689.48 105.873
8646.77 9567.75 9586.6 6624.79 6570.45 104.382
8649.44 9354.89 9423.87 6424.1 6505.79 103.18
8652.12 9348.96 9383.44 6468.48 6425.57 103.149
8654.8 9446.47 9361.61 6384.15 6385.32 103.691
8657.48 9289.4 9185.13 6303.32 6229.76 102.816
8660.15 8819.52 8773.9 6001.81 5950.61 100.127
8662.83 8212.79 8345.56 5546.7 5637.57 96.6209
8665.51 8004.36 8069.24 5364.21 5415.21 95.3829
8668.18 7990.57 8103.6 5334.72 5423.65 95.3192
8670.86 8315.85 8342.72 5572.01 5588.38 97.2733
8673.53 8721.72 8646.6 5858.41 5796.06 99.654
8676.21 8902.22 8873.87 5957.75 5906.86 100.749
8678.88 8997.69 9024.6 5904.44 5973.93 101.268
8681.56 9173.9 9163.61 6059.6 6028.82 102.226
8684.23 9319.23 9279.47 6122.43 6136.47 103.086
8686.91 9345.27 9301.76 6227.39 6149.73 103.238
8689.58 9240.78 9386.57 6099.37 6184.69 102.648
8692.25 9573.68 9479.27 6227.33 6190.58 104.521
8694.93 9623.35 9570.62 6245.03 6235.82 104.799
8697.6 9514.82 9580.03 6235.11 6243.1 104.15
8700.27 9601.92 9589.44 6249.17 6243.77 104.592
8702.95 9651.59 9667.29 6247.03 6269.43 104.936
8705.62 9748.36 9712.03 6312.09 6284.55 105.419
8708.29 9736.13 9727.59 6294.52 6289.82 105.359
8710.96 9698.29 9651.98 6262.84 6242.56 105.17
8713.63 9521.51 9603.72 6170.32 6177.82 104.261
8716.31 9591.36 9688.33 6100.3 6183.11 104.598
8718.98 9952.12 9778.77 6278.7 6194.11 106.572
8721.65 9792.81 9932.7 6203.32 6293.05 105.71
8724.32 10053.2 9861.79 6397.12 6257.18 107.094
8726.99 9739.42 9751.97 6171.11 6224.09 105.387
8729.66 9463.35 9588.69 6104.04 6096.35 103.94
8732.33 9563.29 9492.02 6013.89 6024.25 104.467
8735 9449.43 9471.45 5954.81 5960.85 103.878
8737.67 9401.62 9338 5913.84 5852.72 103.538
8740.33 9162.94 9227.01 5689.52 5774.53 102.273
8743 9116.46 9021.27 5720.23 5620.7 102.011
8745.67 8784.39 8738.13 5452.34 5461.7 100.101
8748.34 8313.54 8410.29 5212.51 5245.9 97.3998
8751.01 8132.93 8157.24 5072.84 5078.58 96.2989
8753.67 8025.25 8126.83 4950.39 5035.9 95.6732
8756.34 8222.3 8204.76 5084.48 5074.2 96.5791
8759.01 8366.73 8472.98 5187.72 5255.21 97.0957
8761.68 8829.91 8743.66 5493.43 5425.21 99.342
8764.34 9034.35 8961.06 5594.47 5558.17 100.3
8767.01 9018.93 9147.9 5586.62 5627.8 100.14
8769.67 9390.41 9251.16 5702.33 5651.57 102.321
8772.34 9344.13 9365.53 5665.76 5672.68 102.248
8775 9362.04 9416.29 5649.94 5678.16 102.391
8777.67 9542.69 9497.16 5718.78 5689.14 103.306
8780.33 9586.76 9608.46 5698.7 5700.53 103.492
8783 9695.93 9697.68 5684.12 5671.31 104.474
8785.66 9810.35 9756.26 5631.11 5666.86 105.452
8788.33 9762.51 9675.77 5685.35 5592.82 105.285
8790.99 9454.44 9575.64 5461.99 5566.98 103.62
8793.65 9509.98 9542 5553.59 5521.69 103.876
8796.32 9661.58 9575.33 5549.51 5539.33 104.808
8798.98 9554.45 9628.3 5514.88 5558.24 104.365
8801.64 9668.89 9660.24 5610.32 5575.79 104.944
8804.3 9757.39 9649.47 5602.17 5568.02 105.572
8806.97 9522.14 9633.21 5491.56 5549.86 104.278
8809.63 9620.1 9542.97 5555.86 5511.34 104.841
8812.29 9486.68 9531.72 5486.6 5499.87 104.044
8814.95 9488.37 9532.38 5457.14 5486.92 104.065
8817.61 9622.08 9601.95 5517.01 5500.04 104.787
8820.27 9695.4 9626.51 5525.98 5527.02 105.109
8822.93 9562.04 9650.87 5538.06 5576.04 103.725
8825.59 9695.19 9583.23 5664.08 5596.31 103.656
8828.25 9492.46 9589.39 5586.79 5653.44 101.975
8830.91 9580.53 9449.46 5709.44 5552.76 102.563
8833.57 9275.38 9368.57 5362.05 5440.38 101.347
8836.23 9249.79 9269.79 5249.65 5250.29 101.642
8838.89 9284.21 9265.77 5139.18 5113.12 102.084
8841.55 9263.3 9298.28 4950.54 5006.11 102.206
8844.21 9347.32 9260.25 4928.62 4913.68 103.001
8846.86 9170.12 9223.61 4861.87 4887.71 102.047
8849.52 9153.39 9102.1 4872.65 4854.59 101.964
8852.18 8982.8 8966.35 4829.23 4817.6 101.052
8854.84 8762.85 8673.73 4750.92 4697.43 99.7843
8857.49 8275.54 8328.26 4512.13 4519.77 97.0988
8860.15 7946.4 7955.86 4296.26 4329.78 95.1368
8862.8 7645.63 7718.82 4180.97 4151.76 93.2488
8865.46 7564.44 7605.82 3978.06 4067.74 92.5456
8868.12 7607.38 7691.75 4044.2 4084.02 92.6743
8870.77 7903.43 7935.32 4229.82 4210.48 94.4342
8873.43 8295.16 8260 4357.42 4354.33 96.9715
8876.08 8581.4 8502.58 4475.74 4460.99 98.8017
8878.74 8631.19 8611.54 4549.8 4557.14 99.1754
8881.39 8622.04 8683.14 4645.88 4665.47 98.8962
8884.04 8796.18 8768.49 4800.72 4787 99.2791
8886.7 8887.24 8823.13 4914.39 4827.14 99.4037
8889.35 8785.96 8890.54 4766.32 4819.77 98.6775
8892 8998.41 8962.34 4778.59 4751.8 100.406
8894.66 9102.65 9122.27 4710.48 4739.06 101.522
8897.31 9265.74 9174.33 4728.1 4716.72 102.638
8899.96 9154.59 9185.48 4711.58 4724.02 101.917
8902.61 9136.09 9110.53 4732.38 4720.81 101.733
8905.27 9040.92 9125.23 4718.47 4740.64 101.032
8907.92 9198.68 9163.87 4771.08 4730.27 101.995
8910.57 9252.02 9182.05 4701.26 4674.28 102.506
8913.22 9095.46 9150.5 4550.51 4629.39 101.644
8915.87 9104.02 9092.69 4636.41 4662.57 101.384
8918.52 9078.6 9046.91 4800.79 4735.3 100.588
8921.17 8958.11 8952.94 4768.7 4766.72 99.6199
8923.82 8822.11 8886.3 4730.66 4687.24 98.8526
8926.47 8878.68 8868.31 4562.35 4566.58 99.8032
8929.12 8904.13 8918.05 4406.72 4417.89 100.391
8931.77 8971.33 8968.97 4284.59 4371.42 101.087
8934.42 9031.46 9062.06 4422.96 4381.98 101.519
8937.06 9183.39 9178.44 4438.4 4494.29 102.361
8939.71 9320.45 9181.23 4621.51 4514.24 103.037
8942.36 9039.85 9082.81 4482.81 4524.62 101.262
8945.01 8888.13 8955.52 4469.55 4457.68 100.231
8947.65 8938.56 8857.15 4420.67 4374.27 100.61
8950.3 8744.77 8849.26 4232.59 4307.43 99.6029
8952.95 8864.45 8755.47 4269.02 4265.31 100.274
8955.59 8657.18 8758.82 4294.31 4317.54 98.7856
8958.24 8754.83 8730.73 4389.29 4352.23 99.042
8960.89 8780.19 8707.42 4373.08 4331.89 98.9391
8963.53 8587.25 8609.97 4233.31 4229.2 98.0636
8966.18 8462.48 8500.68 4081.2 4112.6 97.7762
8968.82 8452.3 8411.02 4023.28 4026.65 98.0914
8971.47 8318.29 8355.89 3975.49 3957.07 97.381
8974.11 8297.08 8333.59 3872.45 3910.87 97.3144
8976.75 8385.41 8384.34 3884.66 3899.67 97.8879
8979.4 8470.55 8420.33 3941.9 3920.68 98.3286
8982.04 8405.04 8416.74 3935.48 3939.71 97.966
8984.68 8374.62 8303.51 3941.76 3928.73 97.7305
8987.33 8130.87 8104.79 3908.94 3850.16 96.157
8989.97 7808.86 7808.55 3699.76 3704.15 94.135
8992.61 7485.9 7598.28 3503.74 3582.61 92.1802
8995.25 7500.08 7560.28 3544.34 3559.09 92.2565
8997.9 7694.86 7579.5 3629.19 3600.1 93.3428
9000.54 7543.56 7521.41 3626.77 3587.97 92.2875
9003.18 7325.82 7405.04 3507.94 3531.71 90.6925
9005.82 7345.73 7292.7 3460.4 3420.73 90.947
9008.46 7206.56 7197.22 3293.85 3327.34 90.2718
9011.1 7039.38 6933.8 3227.78 3199.61 89.4735
9013.74 6555.48 6598.97 3077.2 3045.11 86.5509
9016.38 6202.04 6233.5 2830.34 2846.44 84.0932
9019.02 5942.97 6105.44 2631.79 2733.89 82.4335
9021.66 6171.32 6193.27 2739.55 2767.44 83.9457
9024.3 6465.51 6547.91 2930.98 2914.14 85.8891
9026.94 7006.91 6876.13 3071.9 3043.11 89.4415
9029.57 7155.95 7195.62 3126.46 3171.55 90.4352
9032.21 7423.99 7358.35 3316.3 3288.47 92.1034
9034.85 7495.09 7521.03 3422.67 3406.92 92.5172
9037.49 7644.02 7604.28 3481.8 3460.81 93.2846
9040.12 7673.72 7716.47 3477.96 3494.45 93.523
9042.76 7831.67 7769.29 3523.6 3498.11 94.3966
9045.4 7802.47 7875.57 3492.78 3535.88 94.2605
9048.03 7992.59 7945.48 3591.25 3562.57 95.3526
9050.67 8041.39 8058.14 3603.66 3615.33 95.512
9053.31 8140.46 8061.64 3651.07 3612.8 96.1318
9055.94 8003.07 7968.05 3583.66 3552.22 95.3984
9058.58 7760.62 7832.55 3421.93 3491.71 94.0811
9061.21 7733.95 7652.15 3469.55 3399.94 93.978
9063.85 7461.86 7497.47 3308.34 3316.1 92.2703
9066.48 7296.61 6861 3170.41 2998.4 91.3065
9069.11 5824.54 5872.18 2516.44 2535.77 81.6008
9071.75 4495.38 3439.97 1920.44 1478.96 71.6558
