wavelength spectrum_sum 3smoothed_sum spectrum_optimal 3smoothed_optimal
3505.11 44.4694 37.9693 -0.326096 5.12288
3508.03 69.4385 62.4571 15.6947 8.65565
3510.95 73.4635 63.4751 10.5983 14.9907
3513.87 47.5232 60.866 18.6791 6.97131
3516.8 61.6113 66.9847 -8.36347 12.0347
3519.72 91.8198 66.1418 25.7886 14.0057
3522.64 44.9942 69.753 24.592 17.773
3525.56 72.4449 61.8814 2.93834 5.30257
3528.48 68.2052 63.3664 -11.6226 0.50094
3531.4 49.4493 66.4931 10.1871 2.72257
3534.32 81.8249 58.2961 9.60322 10.116
3537.24 43.6141 69.0216 10.5577 7.42993
3540.17 81.6259 60.5669 2.12893 13.2945
3543.09 56.4609 61.5873 27.1969 11.2964
3546.01 46.675 62.1864 4.56334 18.8731
3548.93 83.4233 54.7827 24.8592 16.6572
3551.85 34.2498 63.3476 20.549 23.3646
3554.77 72.3699 56.2435 24.6855 19.9255
3557.69 62.1109 65.5083 14.542 17.7649
3560.61 62.0441 71.3905 14.0674 28.1837
3563.53 90.0166 82.2177 55.9418 39.9944
3566.45 94.5925 93.8091 49.974 41.8831
3569.38 96.8183 91.9048 19.7334 28.0426
3572.3 84.3035 84.3573 14.4204 16.4808
3575.22 71.95 81.3799 15.2887 24.7726
3578.14 87.8861 85.4382 44.6087 30.6862
3581.06 96.4785 104.335 32.1613 41.3941
3583.98 128.639 110.098 47.4124 35.4779
3586.9 105.176 88.7909 26.8598 18.6169
3589.82 32.5573 37.9898 -18.4216 1.57694
3592.74 -23.7644 12.7766 -3.7074 -8.10292
3595.66 29.5368 -5.71305 -2.17977 2.68393
3598.58 -22.9116 29.3086 13.939 12.7608
3601.5 81.3005 40.0538 26.5232 20.1679
3604.42 61.7725 73.2597 20.0414 13.6219
3607.35 76.7062 60.7837 -5.69892 12.2857
3610.27 43.8724 47.7805 22.5145 13.4082
3613.19 22.763 23.9161 23.4091 16.9902
3616.11 5.11296 30.2799 5.0469 24.1962
3619.03 62.9638 34.7133 44.1325 18.7749
3621.95 36.0631 29.583 7.14525 17.5887
3624.87 -10.2779 10.0281 1.48853 3.92823
3627.79 4.29912 17.5568 3.15091 11.9228
3630.71 58.6492 39.4478 31.129 21.2396
3633.63 55.3952 48.9299 29.4388 33.8681
3636.55 32.7452 41.388 41.0363 35.2807
3639.47 36.0238 34.207 35.367 40.6948
3642.39 33.852 44.7409 45.681 35.9462
3645.31 64.3469 45.4014 26.7904 32.6833
3648.23 38.0054 37.7729 25.5784 35.0148
3651.15 10.9665 17.768 52.6755 41.6766
3654.07 4.33225 8.6531 46.7759 33.7029
3656.99 10.6605 1.68972 1.65737 20.6144
3659.91 -9.92365 5.93148 13.4099 32.9549
3662.83 17.0576 11.0212 83.7976 41.8785
3665.75 25.9297 19.3969 28.4279 56.1495
3668.67 15.2035 8.9131 56.223 46.287
3671.59 -14.3939 9.82778 54.2099 46.2842
3674.51 28.6737 14.996 28.4198 29.2563
3677.43 30.7083 33.7423 5.13937 30.2606
3680.35 41.8448 32.8378 57.2227 21.0342
3683.27 25.9601 29.6858 0.74044 34.3064
3686.19 21.2523 24.3217 44.956 37.0259
3689.11 25.7528 1.89347 65.3812 58.3897
3692.03 -41.3247 -1.57261 64.8318 41.4313
3694.95 10.8541 -15.347 -5.91908 30.3713
3697.87 -15.5704 8.27046 32.2011 23.0828
3700.79 29.5277 13.1876 42.9663 36.3267
3703.71 25.6055 0.0991281 33.8127 45.684
3706.63 -54.8359 -28.9633 60.2729 45.6513
3709.55 -57.6595 -34.2086 42.8681 37.752
3712.47 9.86961 15.0538 10.1149 40.8779
3715.39 92.9513 63.6683 69.6507 59.7687
3718.31 88.1839 86.1118 99.5404 82.8928
3721.23 77.2001 63.9517 79.4872 85.7711
3724.15 26.4711 68.0901 78.2858 84.6805
3727.07 100.599 50.6747 96.2686 83.6394
3729.99 24.9539 75.4931 76.3638 67.9479
3732.91 100.926 78.4939 31.2114 63.209
3735.83 109.601 100.079 82.0518 43.021
3738.75 89.7101 101.268 15.7998 60.4875
3741.67 104.493 105.596 83.6108 63.8056
3744.59 122.585 109.409 92.0062 79.4851
3747.51 101.15 85.7094 62.8384 67.7844
3750.42 33.393 55.6609 48.5086 44.0215
3753.34 32.4394 36.5307 20.7175 32.8311
3756.26 43.7597 45.2199 29.2673 39.6498
3759.18 59.4605 56.5392 68.9646 56.8981
3762.1 66.3974 59.4325 72.4623 63.2799
3765.02 52.4395 7.3463 48.4127 56.767
3767.94 -96.798 2.16292 49.4261 51.1091
3770.86 50.8473 -13.6818 55.4885 53.3709
3773.78 4.90537 19.884 55.198 55.199
3776.7 3.8992 -40.0555 54.9105 50.9289
3779.62 -128.971 -81.2832 42.6782 34.3434
3782.54 -118.778 -71.3154 5.44129 19.583
3785.45 33.8027 -51.3202 10.6294 14.9856
3788.37 -68.9853 5.06353 28.886 26.8671
3791.29 50.3732 13.6292 41.086 42.8105
3794.21 59.4998 71.9973 58.4596 64.124
3797.13 106.119 21.3715 92.8263 58.1377
3800.05 -101.504 14.3928 23.1273 56.5645
3802.97 38.5637 -13.7745 53.7397 52.9591
3805.89 21.6168 36.6124 82.0102 72.0677
3808.81 49.6566 55.2134 80.4531 61.6123
3811.72 94.3667 34.0877 22.3736 51.0284
3814.64 -41.7602 45.9467 50.2584 42.9367
3817.56 85.2337 26.3356 56.178 48.5165
3820.48 35.5333 85.8529 39.1131 43.7971
3823.4 136.792 116.956 36.1001 36.2426
3826.32 178.543 163.885 33.5145 31.1678
3829.24 176.321 185.505 23.8888 43.936
3832.15 201.652 176.599 74.4048 45.666
3835.07 151.824 168.088 38.7043 50.0455
3837.99 150.787 130.49 37.0275 38.9246
3840.91 88.86 107.298 41.0422 34.9844
3843.83 82.2466 44.4096 26.8837 37.7826
3846.75 -37.8778 48.5398 45.4221 49.4418
3849.66 101.251 16.3078 76.0196 48.5787
3852.58 -14.4497 68.6287 24.2943 56.7245
3855.5 119.085 80.6772 69.8597 52.6079
3858.42 137.396 116.049 63.6698 63.4879
3861.34 91.6661 105.398 56.9341 57.897
3864.26 87.1326 99.8497 53.0872 49.4152
3867.17 120.75 97.3651 38.2242 36.5762
3870.09 84.2124 100.146 18.4171 27.9025
3873.01 95.4765 87.3759 27.066 32.2808
3875.93 82.4387 53.7061 51.3593 26.8447
3878.85 -16.797 63.6838 2.10866 23.8713
3881.76 125.41 93.3181 18.1459 7.86499
3884.68 171.342 114.741 3.34044 13.7731
3887.6 47.4726 99.6409 19.8329 8.99665
3890.52 80.1087 74.3852 3.81663 28.8084
3893.44 95.5743 72.7318 62.7758 53.957
3896.35 42.5124 2.51147 95.2784 63.8895
3899.27 -130.552 -8.77135 33.6141 39.5169
3902.19 61.7259 12.0183 -10.3418 25.064
3905.11 104.881 71.4393 51.9196 30.6152
3908.02 47.7107 57.6506 50.2679 64.5393
3910.94 20.3597 40.4215 91.4305 59.3871
3913.86 53.1941 61.6088 36.463 57.2458
3916.78 111.273 110.51 43.8439 70.8629
3919.69 167.063 147.426 132.282 70.3383
3922.61 163.944 191.92 34.889 64.5093
3925.53 244.754 208.686 26.357 17.7919
3928.45 217.36 227.353 -7.87029 11.1191
3931.36 219.945 220.506 14.8707 6.09401
3934.28 224.214 229.094 11.2816 12.1205
3937.2 243.123 237.65 10.2091 18.5757
3940.12 245.613 196.758 34.2365 21.4487
3943.03 101.539 161.796 19.9004 34.3736
3945.95 138.235 120.012 48.9839 59.9508
3948.87 120.263 110.009 110.968 66.8616
3951.78 71.5305 25.2126 40.6326 64.9024
3954.7 -116.156 19.7313 43.1062 5.44061
3957.62 103.819 45.8626 -67.417 -35.4559
3960.54 149.924 150.825 -82.0568 -85.0946
3963.45 198.733 209.514 -105.81 -84.8845
3966.37 279.884 246.599 -66.7866 -81.3061
3969.29 261.179 195.442 -71.3214 -44.938
3972.2 45.2639 149.734 3.29422 -30.1747
3975.12 142.76 74.9348 -22.4969 -8.6406
3978.04 36.7804 55.0985 -6.71913 -22.1277
3980.95 -14.245 -52.4744 -37.1672 -7.34519
3983.87 -179.958 -146.73 21.8507 12.5893
3986.79 -245.986 -227.969 53.0844 48.165
3989.7 -257.961 -177.629 69.5598 29.6155
3992.62 -28.9405 -96.5839 -33.7976 59.3736
3995.54 -2.84993 -6.08679 142.358 58.4224
3998.45 13.5301 4.30806 66.7062 105.158
4001.37 2.24403 19.2249 106.408 104.738
4004.29 41.9007 11.6196 141.099 82.181
4007.2 -9.28598 0.12604 -0.963798 73.2415
4010.12 -32.2366 -106.556 79.5895 70.1394
4013.03 -278.144 -104.933 131.792 122.743
4015.95 -4.41739 -105.676 156.848 96.4945
4018.87 -34.4655 -121.292 0.842954 61.2142
4021.78 -324.992 -136.646 25.9513 16.2691
4024.7 -50.4817 -144.75 22.0131 41.3848
4027.62 -58.7748 -122.234 76.19 40.9153
4030.53 -257.446 -106.354 24.5429 37.7596
4033.45 -2.84047 -97.5515 12.546 22.7232
4036.36 -32.3677 -22.9013 31.0807 24.9864
4039.28 -33.4958 -25.7936 31.3326 41.032
4042.2 -11.5174 -8.17545 60.6827 56.6971
4045.11 20.4869 8.93207 78.076 56.9465
4048.03 17.8267 24.5977 32.0807 80.6618
4050.94 35.4796 26.3983 131.829 108.019
4053.86 25.8885 17.4792 160.149 140.328
4056.78 -8.93052 4.91581 129.005 102.192
4059.69 -2.21057 -81.8144 17.4215 69.8347
4062.61 -234.302 -77.6046 63.0772 92.7341
4065.52 3.69864 -187.394 197.704 101.175
4068.44 -331.579 -105.325 42.7446 123.412
4071.35 11.9064 -180.194 129.787 85.1382
4074.27 -220.91 -177.442 82.8832 68.1716
4077.18 -323.322 -191.305 -8.15497 37.7446
4080.1 -29.6814 -142.818 38.5054 24.6472
4083.02 -75.4513 -70.348 43.5912 40.5426
4085.93 -105.911 -92.0052 39.5312 66.2729
4088.85 -94.6528 -107.084 115.696 58.614
4091.76 -120.687 -81.2284 20.6147 48.1117
4094.68 -28.3452 -137.596 8.02417 35.4785
4097.59 -263.754 -91.6186 77.7965 43.4334
4100.51 17.2438 -185.458 44.4795 80.6954
4103.42 -309.863 -125.2 119.81 85.4594
4106.34 -82.9817 -154.038 92.0884 112.791
4109.25 -69.2694 -108.499 126.474 81.0211
4112.17 -173.247 -124.332 24.5009 76.7979
4115.08 -130.481 -140.685 79.4187 68.6868
4118 -118.329 -133.858 102.141 123.143
4120.91 -152.765 -124.711 187.869 126.798
4123.83 -103.04 -129.365 90.3846 109.324
4126.74 -132.29 -110.959 49.7181 89.2066
4129.66 -97.5468 -94.6545 127.517 125.059
4132.57 -54.1271 -80.4247 197.942 153.758
4135.49 -89.6001 -79.5658 135.816 160.437
4138.4 -94.9702 -66.7707 147.555 166.209
4141.31 -15.7419 -56.3696 215.257 157.187
4144.23 -58.3967 -54.6625 108.748 147.274
4147.14 -89.849 -78.4131 117.817 115.035
4150.06 -86.9936 -91.9119 118.54 133.47
4152.97 -98.893 -78.919 164.052 161.748
4155.89 -50.8704 -81.2403 202.652 197.464
4158.8 -93.9576 -75.4543 225.687 225.843
4161.72 -81.5349 -219.343 249.188 211.95
4164.63 -482.536 -216.621 160.975 210.602
4167.54 -85.7934 -208.668 221.643 211.755
4170.46 -57.6743 -54.7594 252.647 221.734
4173.37 -20.8103 -56.9216 190.913 187.811
4176.29 -92.2802 -62.1243 119.875 174.403
4179.2 -73.2823 -67.0196 212.42 165.785
4182.11 -35.4963 -44.9832 165.059 184.623
4185.03 -26.171 -169.079 176.39 181.636
4187.94 -445.568 -178.733 203.458 223.218
4190.86 -64.4582 -181.92 289.804 246.365
4193.77 -35.7335 -164.467 245.831 246.851
4196.68 -393.209 -160.357 204.919 243.833
4199.6 -52.1276 -152.783 280.748 233.556
4202.51 -13.0106 -59.3495 215.001 220.784
4205.42 -112.91 -58.3166 166.603 186.134
4208.34 -49.0287 -73.4219 176.798 209.017
4211.25 -58.3266 -43.7921 283.651 225.08
4214.16 -24.0209 -57.208 214.793 253.522
4217.08 -89.2764 -56.1823 262.121 230.305
4219.99 -55.2496 -183.191 214.001 232.242
4222.9 -405.048 -138.739 220.605 210.507
4225.82 44.0812 -112.205 196.915 200.494
4228.73 24.3534 -2.95471 183.962 186.611
4231.64 -77.2987 -139.499 178.957 178.01
4234.56 -365.552 -168.315 171.11 182.643
4237.47 -62.0956 -151.633 197.862 182.176
4240.38 -27.2518 -59.0619 177.555 207.619
4243.3 -87.8381 -61.5398 247.438 224.09
4246.21 -69.5294 -186.96 247.275 254.113
4249.12 -403.511 -159.148 267.625 247.65
4252.03 -4.40182 -270.549 228.051 234.868
4254.95 -403.735 -277.858 208.928 213.554
4257.86 -425.437 -302.883 203.684 201.683
4260.77 -79.4771 -206.478 192.436 199.331
4263.69 -114.52 -81.9002 201.874 226.807
4266.6 -51.7033 -33.6821 286.11 229.684
4269.51 65.1772 5.19705 201.067 239.374
4272.42 2.11718 -102.575 230.943 214.382
4275.34 -375.021 -158.736 211.135 249.969
4278.25 -103.305 -164.915 307.83 270.775
4281.16 -16.4185 -44.3656 293.36 281.732
4284.07 -13.3732 -0.3221 244.007 238.887
4286.99 28.8254 1.19999 179.294 228.308
4289.9 -11.8522 1.48764 261.624 235.914
4292.81 -12.5102 13.5496 266.826 267.82
4295.72 65.0112 -70.0364 275.009 270.577
4298.63 -262.61 -26.801 269.895 257.472
4301.55 117.196 -16.9536 227.513 232.78
4304.46 94.5535 22.4854 200.931 217.335
4307.37 -144.293 3.92037 223.56 223.778
4310.28 61.501 -25.3094 246.843 254.57
4313.19 6.86421 -9.38295 293.308 262.12
4316.11 -96.5141 -74.8352 246.208 230.973
4319.02 -134.856 -251.976 153.402 244.4
4321.93 -524.558 -256.483 333.589 231.333
4324.84 -110.036 -256.383 207.007 256.765
4327.75 -134.554 -139.453 229.699 208.004
4330.66 -173.77 -133.613 187.306 209.501
4333.57 -92.5156 -132.789 211.497 217.192
4336.49 -132.081 -99.268 252.773 244.803
4339.4 -73.2068 -82.3165 270.138 268.752
4342.31 -41.6613 -81.9313 283.346 253.958
4345.22 -130.926 -273.457 208.391 209.874
4348.13 -647.785 -304.321 137.884 177.891
4351.04 -134.253 -319.566 187.397 151.423
4353.95 -176.66 -328.64 128.987 152.419
4356.87 -675.006 -347.779 140.872 179.181
4359.78 -191.67 -353.102 267.684 225.241
4362.69 -192.63 -227.128 267.167 247.2
4365.6 -297.083 -251.853 206.748 201.694
4368.51 -265.847 -254.422 131.166 177.344
4371.42 -200.335 -215.652 194.119 193.635
4374.33 -180.773 -183.107 255.621 249.163
4377.24 -168.213 -172.69 297.749 252.285
4380.15 -169.085 -257.032 203.484 239.573
4383.06 -433.799 -243.497 217.485 192.653
4385.97 -127.606 -392.068 156.991 177.662
4388.88 -614.8 -284.133 158.509 208.019
4391.79 -109.994 -292.033 308.558 255.315
4394.7 -151.305 -147.209 298.877 290.209
4397.61 -180.329 -172.001 263.193 257.214
4400.53 -184.368 -169.433 209.57 249.087
4403.44 -143.603 -168.069 274.496 245.287
4406.35 -176.236 -154.639 251.794 278.975
4409.26 -144.08 -164.433 310.636 312.884
4412.17 -172.982 -163.876 376.223 368.19
4415.08 -174.567 -209.05 417.711 355.212
4417.99 -279.6 -228.091 271.702 345.089
4420.9 -230.106 -244.062 345.855 338.696
4423.81 -222.479 -223.222 398.532 355.685
4426.72 -217.08 -387.212 322.668 383.939
4429.63 -722.078 -369.961 430.619 408.408
4432.54 -170.726 -383.893 471.938 453.011
4435.44 -258.876 -233.057 456.476 449.492
4438.35 -269.569 -271.204 420.063 415.313
4441.26 -285.168 -294.266 369.399 416.856
4444.17 -328.061 -277.466 461.107 396.181
4447.08 -219.168 -264.638 358.037 408.666
4449.99 -246.686 -227.33 406.855 362.319
4452.9 -216.135 -230.711 322.065 369.689
4455.81 -229.312 -223.457 380.147 327.757
4458.72 -224.922 -400.646 281.06 331.766
4461.63 -747.704 -402.61 334.09 344.144
4464.54 -235.205 -606.226 417.282 343.538
4467.45 -835.77 -462.217 279.242 324.653
4470.36 -315.676 -492.356 277.434 306.375
4473.27 -325.623 -326.059 362.451 310.109
4476.17 -336.879 -330.808 290.443 333.329
4479.08 -329.923 -328.393 347.092 309.315
4481.99 -318.375 -324.693 290.409 288.903
4484.9 -325.78 -331.612 229.208 239.804
4487.81 -350.682 -346.62 199.795 224.005
4490.72 -363.398 -331.542 243.012 254.439
4493.63 -280.545 -344.54 320.51 267.159
4496.54 -389.677 -342.512 237.956 318.877
4499.44 -357.315 -366.572 398.164 317.343
4502.35 -352.725 -377.899 315.907 318.829
4505.26 -423.657 -579.495 242.417 272.925
4508.17 -962.102 -602.413 260.45 277.33
4511.08 -421.479 -577.334 329.124 300.369
4513.98 -348.42 -580.201 311.533 341.476
4516.89 -970.704 -567.281 383.772 340.997
4519.8 -382.719 -780.466 327.685 318.548
4522.71 -987.975 -550.283 244.187 293.463
4525.62 -280.157 -526.026 308.517 291.823
4528.52 -309.946 -308.2 322.767 297.837
4531.43 -334.496 -507.971 262.227 279.942
4534.34 -879.47 -506.088 254.831 254.788
4537.25 -304.298 -498.444 247.305 289.99
4540.16 -311.566 -333.795 367.835 320.852
4543.06 -385.52 -338.103 347.418 341.174
4545.97 -317.224 -553.934 308.269 366.444
4548.88 -959.057 -510.208 443.646 374.384
4551.79 -254.343 -713.185 371.238 389.378
4554.69 -926.153 -704.204 353.25 383.403
4557.6 -932.115 -743.749 425.721 391.096
4560.51 -372.98 -560.79 394.316 369.921
4563.42 -377.276 -375.166 289.727 308.653
4566.32 -375.241 -364.053 241.916 298.433
4569.23 -339.64 -357.089 363.656 337.339
4572.14 -356.387 -562.666 406.446 368.488
4575.04 -991.97 -584.839 335.362 342.205
4577.95 -406.162 -583.979 284.808 311.704
4580.86 -353.806 -380.998 314.942 340.209
4583.76 -383.026 -376.562 420.876 354.224
4586.67 -392.854 -401.945 326.853 430.214
4589.58 -429.956 -386.868 542.912 457.256
4592.48 -337.794 -563.459 502.003 475.15
4595.39 -922.627 -566.065 380.535 418.055
4598.3 -437.773 -759.636 371.627 374.928
4601.2 -918.507 -755.59 372.623 380.908
4604.11 -910.489 -739 398.473 392.427
4607.02 -388.005 -592.803 406.185 407.496
4609.92 -479.914 -414.399 417.83 423.64
4612.83 -375.277 -428.105 446.906 408.146
4615.73 -429.123 -394.714 359.702 387.849
4618.64 -379.741 -404.282 356.94 352.168
4621.55 -403.982 -632.056 339.863 368.3
4624.45 -1112.45 -655.454 408.096 395.805
4627.36 -449.934 -868.348 439.455 400.79
4630.26 -1042.67 -639.078 354.818 378.947
4633.17 -424.634 -646.615 342.568 309.886
4636.08 -472.543 -420.675 232.271 300.87
4638.98 -364.849 -642.451 327.772 292.058
4641.89 -1089.96 -626.295 316.132 337.53
4644.79 -424.075 -619.279 368.687 342.466
4647.7 -343.801 -385.264 342.58 362.612
4650.6 -387.917 -339.668 376.568 398.317
4653.51 -287.287 -354.601 475.804 442.537
4656.41 -388.598 -357.238 475.238 444.25
4659.32 -395.828 -392.69 381.709 423.257
4662.22 -393.645 -402.058 412.825 391.571
4665.13 -416.702 -392.674 380.178 369.748
4668.03 -367.676 -389.895 316.24 336.097
4670.94 -385.308 -388.324 311.871 340.708
4673.84 -411.989 -403.444 394.013 351.785
4676.75 -413.036 -414.899 349.472 377.247
4679.65 -419.671 -627.621 388.256 379.341
4682.56 -1050.16 -608.306 400.294 397.108
4685.46 -355.089 -604.471 402.775 390.285
4688.37 -408.169 -391.603 367.786 393.542
4691.27 -411.551 -418.857 410.064 387.621
4694.18 -436.851 -441.652 385.012 360.082
4697.08 -476.556 -463.386 285.171 321.425
4699.98 -476.751 -456.723 294.092 299.757
4702.89 -416.863 -436.844 320.007 297.95
4705.79 -416.918 -369.993 279.751 321.657
4708.7 -276.199 -577.353 365.212 340.092
4711.6 -1038.94 -609.966 375.313 366.073
4714.5 -514.757 -675.807 357.694 335.848
4717.41 -473.722 -482.253 274.537 301.647
4720.31 -458.279 -688.009 272.71 268.287
4723.22 -1132.03 -670.292 257.615 283.115
4726.12 -420.571 -674.541 319.02 305.401
4729.02 -471.024 -437.283 339.569 339.051
4731.93 -420.254 -457.033 358.564 339.751
4734.83 -479.822 -434.056 321.121 313.968
4737.73 -402.091 -689.457 262.219 314.505
4740.64 -1186.46 -680.746 360.176 302.995
4743.54 -453.689 -696.657 286.59 321.397
4746.44 -449.824 -442.106 317.424 331.634
4749.35 -422.804 -437.809 390.887 364.277
4752.25 -440.8 -456.229 384.521 358.394
4755.15 -505.083 -461.009 299.774 298.901
4758.06 -437.145 -469.911 212.41 230.866
4760.96 -467.506 -449.826 180.414 180.928
4763.86 -444.829 -448.025 149.959 217.013
4766.76 -431.74 -664.544 320.665 273.307
4769.67 -1117.06 -666.201 349.298 370.468
4772.57 -449.799 -689.406 441.442 371.808
4775.47 -501.355 -473.631 324.685 410.902
4778.38 -469.74 -522.466 466.58 360.697
4781.28 -596.303 -518.091 290.826 341.748
4784.18 -488.23 -739.127 267.839 297.42
4787.08 -1132.85 -704.565 333.595 262.106
4789.98 -492.617 -727.056 184.884 248.847
4792.89 -555.702 -515.522 228.061 233.663
4795.79 -498.246 -740.414 288.043 267.185
4798.69 -1167.29 -719.195 285.452 303.015
4801.59 -492.045 -693.848 335.55 313.766
4804.49 -422.205 -462.021 320.294 302.749
4807.4 -471.813 -461.591 252.401 287.662
4810.3 -490.754 -500.224 290.292 280
4813.2 -538.104 -523.148 297.307 265.077
4816.1 -540.586 -763.931 207.632 262.763
4819 -1213.1 -754.444 283.35 277.013
4821.9 -509.643 -985.39 340.057 318.617
4824.81 -1233.42 -983.459 332.445 365.545
4827.71 -1207.31 -981.498 424.134 337.04
4830.61 -503.758 -745.754 254.54 323.008
4833.51 -526.19 -514.132 290.351 260.172
4836.41 -512.449 -529.361 235.623 269.112
4839.31 -549.444 -782.053 281.363 299.996
4842.21 -1284.27 -1032.61 383.001 360.634
4845.11 -1264.13 -1239.06 417.539 360.322
4848.01 -1168.78 -986.151 280.425 367.181
4850.92 -525.538 -945.441 403.58 339.746
4853.82 -1142.01 -667.597 335.234 347.895
4856.72 -335.249 -569.478 304.87 319.037
4859.62 -231.18 -414.202 317.008 297.629
4862.52 -676.178 -530.34 271.008 294.726
4865.42 -683.663 -693.244 296.162 307.912
4868.32 -719.892 -720.811 356.564 315.828
4871.22 -758.877 -778.621 294.759 317.51
4874.12 -857.095 -843.387 301.206 302.031
4877.02 -914.19 -907.462 310.127 279.002
4879.92 -951.1 -934.476 225.672 262.252
4882.82 -938.137 -942.447 250.958 229.543
4885.72 -938.105 -931.746 211.998 258.669
4888.62 -918.995 -908.257 313.05 288.162
4891.52 -867.67 -918.298 339.439 349.348
4894.42 -968.229 -942.478 395.554 336.793
4897.32 -991.534 -982.364 275.385 345.142
4900.22 -987.327 -992.826 364.486 315.342
4903.12 -999.615 -1024.88 306.156 304.698
4906.02 -1087.69 -1039.84 243.452 292.033
4908.92 -1032.22 -1038.09 326.49 283.273
4911.81 -994.382 -997.688 279.875 309.061
4914.71 -966.468 -977.09 320.817 291.774
4917.61 -970.42 -942.826 274.629 290.239
4920.51 -891.588 -897.931 275.271 283.738
4923.41 -831.783 -893.154 301.316 304.03
4926.31 -956.091 -935.99 335.504 301.031
4929.21 -1020.1 -974.297 266.274 304.76
4932.11 -946.704 -987.687 312.503 268.296
4935.01 -996.261 -939.433 226.11 269.004
4937.91 -875.334 -935.089 268.4 260.706
4940.8 -933.671 -944.45 287.61 313.036
4943.7 -1024.35 -1002.82 383.098 315.074
4946.6 -1050.45 -1023.72 274.514 320.446
4949.5 -996.37 -1015.19 303.727 276.035
4952.4 -998.746 -1019.88 249.863 256.885
4955.3 -1064.52 -1011.05 217.064 233.641
4958.19 -969.902 -1004.91 233.997 222.548
4961.09 -980.3 -987.191 216.585 265.582
4963.99 -1011.37 -1009.34 346.165 292.366
4966.89 -1036.35 -1039.94 314.349 326.177
4969.78 -1072.11 -1060.06 318.017 303.694
4972.68 -1071.72 -1069.88 278.715 296.187
4975.58 -1065.82 -1054.19 291.83 303.07
4978.48 -1025.03 -1027.03 338.663 278.4
4981.38 -990.231 -971.584 204.706 274.555
4984.27 -899.494 -943.375 280.295 221.235
4987.17 -940.4 -922.303 178.703 251.626
4990.07 -927.015 -950.869 295.881 229.139
4992.96 -985.19 -958.366 212.834 278.51
4995.86 -962.892 -985.81 326.814 288.473
4998.76 -1009.35 -985.222 325.771 314.317
5001.66 -983.428 -979.589 290.367 302.496
5004.55 -945.992 -963.518 291.351 295.778
5007.45 -961.135 -944.79 305.616 276.526
5010.35 -927.241 -937.744 232.61 276.368
5013.24 -924.856 -920.022 290.877 233.287
5016.14 -907.969 -903.463 176.374 238.743
5019.04 -877.564 -896.656 248.977 235.633
5021.93 -904.435 -900.874 281.549 313.89
5024.83 -920.623 -933.801 411.143 342.134
5027.72 -976.345 -951.385 333.71 341.398
5030.62 -957.187 -964.543 279.341 279.571
5033.52 -960.099 -1023.96 225.663 263.944
5036.41 -1154.61 -1117.01 286.828 259.415
5039.31 -1236.33 -1133.27 265.754 260.103
5042.2 -1008.88 -1078.77 227.728 227.473
5045.1 -991.092 -988.626 188.938 228.034
5048 -965.91 -975.77 267.437 214.769
5050.89 -970.309 -985.568 187.933 241.628
5053.79 -1020.48 -1002.66 269.512 261.105
5056.68 -1017.17 -1030.84 325.868 294.878
5059.58 -1054.87 -1033.37 289.252 305.742
5062.47 -1028.06 -1062.06 302.106 287.588
5065.37 -1103.24 -1036 271.406 281.924
5068.26 -976.703 -1032.85 272.26 268.801
5071.16 -1018.6 -1010.76 262.736 265.312
5074.05 -1036.96 -1022.61 260.94 260.466
5076.95 -1012.27 -1012.74 257.721 251.264
5079.84 -988.972 -987.43 235.131 243.845
5082.74 -961.043 -957.43 238.683 249.837
5085.63 -922.274 -945.076 275.697 257.068
5088.53 -951.912 -970.848 256.824 280.905
5091.42 -1038.36 -1006.45 310.194 292.135
5094.32 -1029.07 -1046.82 309.387 313.982
5097.21 -1073.02 -1020.71 322.365 320.989
5100.1 -960.048 -1007.65 331.216 288.633
5103 -989.873 -960.305 212.317 267.132
5105.89 -930.993 -986.243 257.864 254.187
5108.79 -1037.86 -974.623 292.381 305.229
5111.68 -955.012 -989.471 365.442 328.138
5114.57 -975.537 -1004.49 326.589 331.629
5117.47 -1082.92 -1051.02 302.855 331.069
5120.36 -1094.59 -1074.37 363.763 307.142
5123.26 -1045.59 -1065.16 254.808 298.73
5126.15 -1055.29 -989.068 277.619 291.672
5129.04 -866.331 -963.378 342.589 296.268
5131.94 -968.516 -954.08 268.596 270.996
5134.83 -1027.39 -1004.28 201.804 249.451
5137.72 -1016.92 -982.264 277.954 245.709
5140.62 -902.475 -966.678 257.37 274.575
5143.51 -980.635 -955.315 288.401 280.054
5146.4 -982.835 -974.211 294.391 307.061
5149.29 -959.163 -968.518 338.39 316.78
5152.19 -963.558 -958.662 317.557 309.018
5155.08 -953.266 -973.912 271.106 318.998
5157.97 -1004.91 -1012.19 368.332 328.177
5160.86 -1078.4 -1031.02 345.093 341.42
5163.76 -1009.76 -971.013 310.835 333.813
5166.65 -824.882 -865.228 345.51 317.358
5169.54 -761.046 -758.952 295.728 309.564
5172.43 -690.93 -733.177 287.453 305.864
5175.33 -747.554 -757.417 334.411 319.764
5178.22 -833.767 -796.803 337.428 317.145
5181.11 -809.088 -799.45 279.598 301.717
5184 -755.493 -763.31 288.124 271.584
5186.89 -725.348 -769.389 247.031 244.016
5189.79 -827.326 -825.743 196.892 249.828
5192.68 -924.555 -881.775 305.561 280.016
5195.57 -893.445 -921.563 337.594 324.314
5198.46 -946.688 -933.738 329.788 341.337
5201.35 -961.081 -922.436 356.63 361.204
5204.24 -859.539 -894.609 397.196 358.316
5207.13 -863.208 -882.712 321.123 357.578
5210.02 -925.388 -922.883 354.416 328.049
5212.92 -980.053 -961.251 308.608 337.663
5215.81 -978.31 -977.14 349.965 325.587
5218.7 -973.057 -1012.46 318.19 329
5221.59 -1086 -1040.2 318.846 325.173
5224.48 -1061.54 -1054.6 338.483 331.841
5227.37 -1016.25 -1000.57 338.195 291.271
5230.26 -923.932 -968.213 197.135 250.634
5233.15 -964.456 -960.216 216.571 220.315
5236.04 -992.261 -991.163 247.239 252.737
5238.93 -1016.77 -1012.06 294.401 276.755
5241.82 -1027.14 -1036.07 288.624 317.397
5244.71 -1064.29 -1041.07 369.167 316.491
5247.6 -1031.79 -1053.96 291.682 328.012
5250.49 -1065.8 -1026.91 323.188 302.808
5253.38 -983.145 -1003.13 293.555 313.068
5256.27 -960.451 -993.302 322.463 313.461
5259.16 -1036.31 -996.962 324.365 291.539
5262.05 -994.123 -981.884 227.788 292.607
5264.94 -915.217 -935.049 325.667 308.478
5267.83 -895.807 -901.39 371.98 326.137
5270.72 -893.147 -871.736 280.764 353.488
5273.61 -826.253 -916.058 407.721 339.311
5276.5 -1028.77 -945.909 329.448 378.255
5279.38 -982.7 -985.559 397.595 342.25
5282.27 -945.203 -960.538 299.706 356.755
5285.16 -953.711 -982.908 372.963 345.499
5288.05 -1049.81 -1017.07 363.826 354.243
5290.94 -1047.69 -1054.94 325.939 366.793
5293.83 -1067.32 -1062.73 410.614 393.262
5296.72 -1073.19 -1081.37 443.234 399.402
5299.6 -1103.6 -1083.02 344.359 382.222
5302.49 -1072.27 -1080.57 359.074 319.216
5305.38 -1065.84 -1079.31 254.215 281.332
5308.27 -1099.82 -1102.16 230.707 237.66
5311.16 -1140.83 -1111.53 228.056 141.471
5314.05 -1093.95 -1127.28 -34.3511 13.1082
5316.93 -1147.06 -1090.98 -154.381 -111.979
5319.82 -1031.92 -1083.72 -147.206 -91.1383
5322.71 -1072.19 -1023.18 28.1714 35.5789
5325.6 -965.423 -1018.63 225.771 52.2957
5328.48 -1018.27 -996.343 -97.0553 -38.8847
5331.37 -1005.34 -1010.93 -245.37 -182.823
5334.26 -1009.18 -1016.27 -206.045 -254.115
5337.15 -1034.28 -1003.92 -310.93 -226.44
5340.03 -968.308 -987.476 -162.343 -203.748
5342.92 -959.839 -982.078 -137.971 -165.276
5345.81 -1018.09 -992.089 -195.514 -156.367
5348.69 -998.34 -1029.63 -135.616 -170.055
5351.58 -1072.47 -1051.9 -179.036 -183.372
5354.47 -1084.9 -1104.09 -235.463 -217.756
5357.35 -1154.89 -1121.87 -238.771 -190.032
5360.24 -1125.81 -1120.15 -95.8614 -37.8597
5363.13 -1079.76 -1107.55 221.053 211.703
5366.01 -1117.07 -1073.93 509.916 360.601
5368.9 -1024.95 -1041.4 350.834 404.613
5371.78 -982.169 -1014.66 353.09 360.92
5374.67 -1036.85 -1002.71 378.835 375.544
5377.56 -989.102 -1023.81 394.708 389.027
5380.44 -1045.48 -1057.5 393.538 353.33
5383.33 -1137.93 -1109.22 271.746 333.411
5386.21 -1144.26 -1119.85 334.949 340.776
5389.1 -1077.35 -1093.32 415.633 341.345
5391.98 -1058.34 -1061.11 273.452 300.298
5394.87 -1047.65 -1028.46 211.808 266.006
5397.75 -979.39 -1004.42 312.759 264.249
5400.64 -986.224 -996.143 268.179 284.736
5403.53 -1022.81 -993.275 273.269 268.45
5406.41 -970.787 -955.913 263.902 289.184
5409.29 -874.139 -937.19 330.382 317.979
5412.18 -966.645 -946.45 359.653 354.96
5415.06 -998.565 -1012.61 374.847 331.703
5417.95 -1072.62 -1030.45 260.609 333.648
5420.83 -1020.15 -1029.84 365.488 325.421
5423.72 -996.749 -1016.37 350.167 354.988
5426.6 -1032.2 -1039.19 349.31 336.572
5429.49 -1088.62 -1053.75 310.241 339.962
5432.37 -1040.44 -1039.65 360.336 313.826
5435.25 -989.879 -1032.28 270.901 335.455
5438.14 -1066.52 -1052.66 375.13 321.77
5441.02 -1101.58 -1077.19 319.279 296.516
5443.91 -1063.49 -1054.89 195.138 252.742
5446.79 -999.618 -1047.83 243.809 240.698
5449.67 -1080.38 -1031.52 283.147 245.353
5452.56 -1014.55 -1049.53 209.102 319.556
5455.44 -1053.65 -1026.74 466.419 320.339
5458.32 -1012.01 -1071.03 285.498 359.174
5461.21 -1147.43 -1075.07 325.607 278.124
5464.09 -1065.76 -1075.31 223.266 327.109
5466.97 -1012.74 -1064.97 432.455 329.828
5469.85 -1116.43 -1069.55 333.763 371.06
5472.74 -1079.49 -1089.67 346.96 348.76
5475.62 -1073.09 -1039.89 365.556 373.067
5478.5 -967.073 -1030.82 406.684 388.527
5481.39 -1052.28 -1039.38 393.343 379.916
5484.27 -1098.78 -1080.32 339.723 340.999
5487.15 -1089.9 -1101.37 289.932 293.844
5490.03 -1115.43 -1083.61 251.877 290.954
5492.91 -1045.51 -1079.16 331.054 292.218
5495.8 -1076.54 -1083.21 293.722 350.401
5498.68 -1127.59 -1103.63 426.425 375.553
5501.56 -1106.76 -1113.53 406.511 364.598
5504.44 -1106.24 -1074.74 260.859 300.566
5507.32 -1011.21 -1056.55 234.328 268.623
5510.2 -1052.21 -1036.66 310.682 315.368
5513.09 -1046.57 -1078.16 401.094 365.494
5515.97 -1135.7 -1096.94 384.706 363.174
5518.85 -1108.55 -1122.4 303.721 331.798
5521.73 -1122.95 -1117.17 306.966 334.898
5524.61 -1120 -1106.92 394.006 359.774
5527.49 -1077.82 -1101.27 378.348 356.977
5530.37 -1106 -1106.93 298.575 355.976
5533.25 -1136.96 -1102.9 391.006 354.691
5536.13 -1065.73 -1102.41 374.491 376.861
5539.01 -1104.54 -1081.59 365.087 356.248
5541.89 -1074.49 -1075.49 329.167 380.539
5544.77 -1047.42 -1073.78 447.363 361.935
5547.65 -1099.43 -1067.29 309.275 352.009
5550.53 -1055.01 -1075.49 299.39 313.358
5553.41 -1072.04 -1076.89 331.41 325.897
5556.29 -1103.61 -1097.8 346.893 331.469
5559.17 -1117.76 -1092.32 316.104 362.582
5562.05 -1055.58 -1083.03 424.748 344.123
5564.93 -1075.74 -1060.05 291.516 361.004
5567.81 -1048.82 -1051.65 366.749 444.15
5570.69 -1030.38 -1043.08 674.185 740.751
5573.57 -1050.03 -1031.7 1181.32 1200.51
5576.45 -1014.7 -1028.41 1746.01 1410.33
5579.33 -1020.5 -1039.22 1303.66 1086.05
5582.21 -1082.47 -1043.8 208.467 408.558
5585.09 -1028.43 -1025.58 -286.453 -191.943
5587.97 -965.849 -1013.77 -497.842 -399.747
5590.84 -1047.03 -980.623 -414.945 -332.494
5593.72 -928.987 -1007.19 -84.696 -180.744
5596.6 -1045.55 -997.55 -42.5896 -46.106
5599.48 -1018.12 -1031.51 -11.0325 -7.62107
5602.36 -1030.86 -1003.31 30.7589 65.5387
5605.24 -960.959 -1031.6 176.89 130.023
5608.11 -1102.98 -1060.27 182.42 226.947
5610.99 -1116.89 -1090.66 321.531 266.448
5613.87 -1052.13 -1073.58 295.392 317.976
5616.75 -1051.71 -1053.48 337.005 291.154
5619.62 -1056.62 -1052.07 241.066 309.68
5622.5 -1047.88 -1057.29 350.97 326.307
5625.38 -1067.38 -1074.73 386.886 367.855
5628.26 -1108.93 -1092.17 365.71 419.033
5631.13 -1100.19 -1100.21 504.502 418.002
5634.01 -1091.5 -1078.88 383.793 442.934
5636.89 -1044.95 -1061.9 440.507 433.783
5639.77 -1049.25 -1067.54 477.049 416.91
5642.64 -1108.43 -1078.34 333.174 421.276
5645.52 -1077.35 -1125.42 453.605 409.191
5648.4 -1190.48 -1115.87 440.794 426.726
5651.27 -1079.79 -1108.9 385.779 395.442
5654.15 -1056.42 -1061.86 359.754 428.037
5657.02 -1049.38 -1022.79 538.579 492.072
5659.9 -962.576 -1005.82 577.883 533.034
5662.78 -1005.5 -1007.82 482.641 483.997
5665.65 -1055.39 -1023.19 391.466 440.083
5668.53 -1008.67 -1031.21 446.142 430.94
5671.4 -1029.57 -1029.53 455.212 463.762
5674.28 -1050.35 -1047.38 489.932 453.752
5677.15 -1062.21 -1041.45 416.113 455.15
5680.03 -1011.79 -1046.59 459.405 418.948
5682.91 -1065.76 -1068.89 381.327 433.334
5685.78 -1129.11 -1077.96 459.271 429.577
5688.66 -1038.99 -1057.66 448.135 427.851
5691.53 -1004.86 -1044.55 376.148 396.414
5694.41 -1089.79 -1047.32 364.96 411.102
5697.28 -1047.32 -1061.17 492.2 419.826
5700.15 -1046.4 -1057.44 402.318 437.954
5703.03 -1078.61 -1041.22 419.343 408.771
5705.9 -998.665 -997.286 404.651 397.861
5708.78 -914.579 -951 369.587 386.808
5711.65 -939.755 -955.902 386.186 403.663
5714.53 -1013.37 -982.639 455.217 432.934
5717.4 -994.787 -1019.7 457.4 480.195
5720.27 -1050.93 -1023.9 527.967 500.416
5723.15 -1025.97 -1066.24 515.88 480.289
5726.02 -1121.83 -1063.42 397.02 474.912
5728.9 -1042.44 -1072.76 511.835 438.152
5731.77 -1053.99 -1036.21 405.6 444.856
5734.64 -1012.19 -1053.11 417.132 391.892
5737.52 -1093.16 -1045.48 352.944 427.771
5740.39 -1031.08 -1056.05 513.238 462.651
5743.26 -1043.9 -1063.26 521.77 459.674
5746.13 -1114.79 -1072.17 344.014 434.633
5749.01 -1057.83 -1062.93 438.116 425.048
5751.88 -1016.16 -1054.76 493.013 471.01
5754.75 -1090.28 -1043.73 481.899 475.968
5757.62 -1024.74 -1043.34 452.99 444.379
5760.5 -1015 -1014.06 398.248 419.22
5763.37 -1002.43 -1009.18 406.421 437.3
5766.24 -1010.12 -1012.04 507.23 485.471
5769.11 -1023.57 -1006.26 542.762 530.321
5771.99 -985.102 -1006.81 540.97 493.66
5774.86 -1011.76 -1014.65 397.248 446.077
5777.73 -1047.1 -1031.77 400.013 404.205
5780.6 -1036.46 -1021.85 415.356 447.142
5783.47 -982.004 -1013.32 526.059 473.049
5786.34 -1021.49 -1017.25 477.733 501.938
5789.21 -1048.25 -1020.41 502.023 498.188
5792.09 -991.499 -1004.42 514.808 485.517
5794.96 -973.52 -1003.58 439.719 480.573
5797.83 -1045.73 -1025.36 487.192 481.123
5800.7 -1056.83 -1059.93 516.458 483.037
5803.57 -1077.24 -1045.26 445.46 473.618
5806.44 -1001.72 -1023.41 458.936 450.337
5809.31 -991.284 -1005.47 446.615 466.115
5812.18 -1023.4 -1019.13 492.793 468.455
5815.05 -1042.72 -1053.36 465.955 458.515
5817.92 -1093.95 -1066.75 416.796 432.486
5820.79 -1063.57 -1057.8 414.706 451.935
5823.66 -1015.89 -1044.67 524.304 474.691
5826.53 -1054.56 -1023.29 485.064 479.188
5829.4 -999.413 -1039.67 428.195 490.609
5832.27 -1065.05 -1038.22 558.568 483.572
5835.14 -1050.21 -1060.45 463.952 461.532
5838.01 -1066.09 -1038.49 362.076 426.602
5840.88 -999.182 -1045.63 453.777 451.806
5843.75 -1071.63 -1054.11 539.564 482.1
5846.61 -1091.52 -1081.05 452.959 488.191
5849.48 -1080.01 -1081.53 472.05 481.701
5852.35 -1073.07 -1042.46 520.095 489.253
5855.22 -974.313 -1003.55 475.615 507.636
5858.09 -963.271 -1003.56 527.197 502.74
5860.96 -1073.1 -1001.41 505.407 545.437
5863.83 -967.846 -1025.18 603.705 553.337
5866.69 -1034.59 -1027.13 550.899 570.697
5869.56 -1078.95 -1031.99 557.487 542.866
5872.43 -982.43 -1018.47 520.213 510.174
5875.3 -994.014 -992.985 452.822 487.025
5878.17 -1002.51 -1015.36 488.039 493.466
5881.03 -1049.54 -992.621 539.537 605.538
5883.9 -925.811 -979.946 789.037 767.543
5886.77 -964.483 -911.604 974.054 1012.3
5889.64 -844.518 -895.212 1273.8 1117.83
5892.5 -876.636 -860.073 1105.63 1085.85
5895.37 -859.064 -855.536 878.114 848.874
5898.24 -830.909 -887.055 562.875 538.393
5901.1 -971.192 -886.471 174.19 285.222
5903.97 -857.314 -930.912 118.601 109.985
5906.84 -964.231 -940.101 37.1654 74.344
5909.7 -998.757 -1162 67.2656 63.5801
5912.57 -1523.02 -1335.1 86.3093 118.23
5915.43 -1483.54 -1496.72 201.115 144.062
5918.3 -1483.6 -1483.57 144.761 217.906
5921.17 -1483.58 -1489.59 307.843 275.976
5924.03 -1501.59 -1508.82 375.325 380.724
5926.9 -1541.3 -1517.5 459.004 460.419
5929.76 -1509.6 -1504.1 546.927 536.496
5932.63 -1461.4 -1504.57 603.556 547.733
5935.49 -1542.7 -1509.17 492.717 487.042
5938.36 -1523.42 -1505.54 364.853 415.497
5941.22 -1450.5 -1488.04 388.92 435.78
5944.09 -1490.19 -1464.18 553.568 485.46
5946.95 -1451.85 -1476.59 513.891 513.972
5949.82 -1487.73 -1483.52 474.456 490.437
5952.68 -1511 -1495.27 482.964 506.273
5955.55 -1487.09 -1510.6 561.399 490.957
5958.41 -1533.71 -1485.27 428.509 475.055
5961.28 -1435.01 -1490.99 435.258 411.909
5964.14 -1504.25 -1461.2 371.959 430.267
5967.01 -1444.33 -1472.15 483.585 447.472
5969.87 -1467.86 -1470.01 486.873 541.776
5972.73 -1497.83 -1483.86 654.871 559.989
5975.6 -1485.87 -1472.01 538.223 553.884
5978.46 -1432.34 -1474.07 468.559 468.682
5981.32 -1504 -1461.88 399.264 418.047
5984.19 -1449.31 -1457.01 386.318 434.128
5987.05 -1417.71 -1446.11 516.803 462.052
5989.91 -1471.32 -1455.45 483.035 515.733
5992.78 -1477.32 -1462.74 547.359 494.442
5995.64 -1439.59 -1450.11 452.932 478.723
5998.5 -1433.43 -1455.69 435.878 447.251
6001.36 -1494.07 -1460.12 452.942 474.488
6004.23 -1452.87 -1464.21 534.643 465.031
6007.09 -1445.69 -1430.63 407.508 483.51
6009.95 -1393.33 -1430.47 508.381 458.116
6012.81 -1452.39 -1430.99 458.459 471.167
6015.67 -1447.25 -1418.4 446.663 479.334
6018.54 -1355.57 -1403.09 532.88 479.824
6021.4 -1406.46 -1361.94 459.93 513.007
6024.26 -1323.78 -1351.72 546.212 500.648
6027.12 -1324.92 -1355.58 495.802 514.401
6029.98 -1418.05 -1354.87 501.188 533.067
6032.84 -1321.63 -1404.34 602.209 539.798
6035.7 -1473.33 -1426.71 515.996 539.99
6038.57 -1485.16 -1468.05 501.763 504.903
6041.43 -1445.65 -1474.46 496.949 480.181
6044.29 -1492.57 -1462.06 441.831 482.733
6047.15 -1447.95 -1480.6 509.419 477.179
6050.01 -1501.27 -1462.71 480.285 505.007
6052.87 -1438.92 -1425.97 525.316 485.501
6055.73 -1337.72 -1377.65 450.902 506.373
6058.59 -1356.33 -1380.79 542.902 516.656
6061.45 -1448.31 -1390.59 556.165 542.452
6064.31 -1367.14 -1382.33 528.288 534.632
6067.17 -1331.55 -1381.35 519.443 534.79
6070.03 -1445.37 -1402.9 556.638 499.55
6072.89 -1431.77 -1454.72 422.568 500.958
6075.75 -1487.01 -1512.99 523.667 451.816
6078.61 -1620.18 -1509.77 409.213 512.202
6081.47 -1422.13 -1472.65 603.726 547.669
6084.32 -1375.63 -1408.36 630.069 589.139
6087.18 -1427.32 -1396.87 533.623 574.624
6090.04 -1387.65 -1390.91 560.181 550.218
6092.9 -1357.75 -1379.62 556.851 571.228
6095.76 -1393.46 -1378.91 596.653 562.312
6098.62 -1385.53 -1396.97 533.432 586.978
6101.48 -1411.93 -1372.2 630.849 570.299
6104.33 -1319.14 -1371.35 546.616 592.438
6107.19 -1382.96 -1356.66 599.849 596.388
6110.05 -1367.88 -1383.64 642.699 593.674
6112.91 -1400.1 -1388.19 538.474 559.333
6115.76 -1396.6 -1383.73 496.827 544.316
6118.62 -1354.51 -1376.17 597.649 589.291
6121.48 -1377.4 -1373.5 673.398 618.24
6124.34 -1388.58 -1361.78 583.675 577.393
6127.19 -1319.36 -1343.61 475.106 517.755
6130.05 -1322.9 -1313.54 494.484 504.088
6132.91 -1298.35 -1317.6 542.674 520.442
6135.76 -1331.55 -1332.22 524.168 588.692
6138.62 -1366.77 -1352.3 699.236 623.247
6141.48 -1358.57 -1346.99 646.339 656.961
6144.33 -1315.62 -1343.64 625.309 633.645
6147.19 -1356.73 -1331.6 629.287 631.216
6150.04 -1322.45 -1332.8 639.05 588.555
6152.9 -1319.23 -1340.91 497.329 587.714
6155.76 -1381.06 -1327.47 626.762 524.562
6158.61 -1282.12 -1303.32 449.596 519.756
6161.47 -1246.79 -1256.16 482.909 532.975
6164.32 -1239.56 -1251.67 666.42 581.764
6167.18 -1268.66 -1240.56 595.961 649.674
6170.03 -1213.45 -1223.34 686.64 630.777
6172.89 -1187.89 -1231.99 609.729 650.863
6175.74 -1294.64 -1255.84 656.22 621.651
6178.6 -1284.99 -1302.22 599.005 592.58
6181.45 -1327.04 -1297.64 522.516 565.755
6184.31 -1280.89 -1299.48 575.745 550.629
6187.16 -1290.52 -1278.98 553.625 539.696
6190.02 -1265.54 -1274.04 489.718 497.725
6192.87 -1266.05 -1271.99 449.832 518.863
6195.72 -1284.37 -1274.55 617.039 549.911
6198.58 -1273.22 -1303.34 582.862 604.959
6201.43 -1352.42 -1298.66 614.975 602.746
6204.28 -1270.35 -1334.44 610.399 624.563
6207.14 -1380.55 -1316.29 648.313 591.999
6209.99 -1297.97 -1303.41 517.286 619.076
6212.84 -1231.69 -1276.9 691.629 606.312
6215.7 -1301.04 -1272.03 610.023 601.812
6218.55 -1283.36 -1284.81 503.784 585.708
6221.4 -1270.04 -1291.16 643.317 563.999
6224.25 -1320.08 -1276.68 544.895 610.911
6227.11 -1239.92 -1274.26 644.52 622.004
6229.96 -1262.77 -1225.96 676.598 712.277
6232.81 -1175.2 -1239.97 815.714 786.539
6235.66 -1281.95 -1244.76 867.306 814.855
6238.52 -1277.12 -1286.71 761.546 760.999
6241.37 -1301.08 -1288.35 654.145 659.311
6244.22 -1286.87 -1275.29 562.244 569.884
6247.07 -1237.94 -1252.65 493.262 509.031
6249.92 -1233.15 -1226.78 471.586 500.691
6252.77 -1209.26 -1201.17 537.226 531.132
6255.62 -1161.1 -1204.08 584.585 543.033
6258.48 -1241.88 -1208.67 507.29 582.49
6261.33 -1223.03 -1236.82 655.595 593.001
6264.18 -1245.53 -1221.93 616.117 596.423
6267.03 -1197.23 -1211.34 517.556 576.389
6269.88 -1191.27 -1217.96 595.495 568.547
6272.73 -1265.39 -1215.51 592.59 561.007
6275.58 -1189.88 -1222.21 494.935 507.588
6278.43 -1211.35 -1196.92 435.239 498.568
6281.28 -1189.54 -1200.84 565.532 549.927
6284.13 -1201.62 -1220.58 649.011 626.813
6286.98 -1270.57 -1230.43 665.896 627.168
6289.83 -1219.09 -1226.32 566.597 861.146
6292.68 -1189.3 -1192.95 1350.94 1401.12
6295.53 -1170.46 -1151.44 2285.81 2333.88
6298.38 -1094.54 -1096.84 3364.89 2836.02
6301.22 -1025.52 -1097.8 2857.36 2525.53
6304.07 -1173.34 -1115.84 1354.32 1412.42
6306.92 -1148.66 -1160.81 25.5652 270.385
6309.77 -1160.43 -1155.7 -568.732 -519.43
6312.62 -1158 -1185.05 -1015.12 -912.338
6315.47 -1236.73 -1193.48 -1153.16 -1008.25
6318.31 -1185.7 -1187.54 -856.471 -786.267
6321.16 -1140.19 -1169.99 -349.171 -425.16
6324.01 -1184.08 -1198.17 -69.8365 -42.2109
6326.86 -1270.25 -1225.15 292.375 205.951
6329.71 -1221.13 -1223.55 395.314 370.397
6332.55 -1179.26 -1230.95 423.503 406.847
6335.4 -1292.48 -1220.04 401.723 434.454
6338.25 -1188.4 -1239.2 478.135 545.762
6341.09 -1236.71 -1215.02 757.426 604.719
6343.94 -1219.94 -1218.68 578.595 666.514
6346.79 -1199.39 -1199.66 663.521 641.645
6349.63 -1179.64 -1201.46 682.819 731.1
6352.48 -1225.36 -1214.31 846.961 761.712
6355.33 -1237.94 -1216.88 755.356 950.712
6358.17 -1187.34 -1187.65 1249.82 1140.8
6361.02 -1137.69 -1168.21 1417.21 1351.66
6363.87 -1179.62 -1176.94 1387.94 1192.29
6366.71 -1213.51 -1193.32 771.726 873.305
6369.56 -1186.83 -1182.94 460.25 496.193
6372.4 -1148.47 -1177.8 256.602 327.957
6375.25 -1198.1 -1178.43 267.019 271.175
6378.09 -1188.73 -1212.75 289.905 286.12
6380.94 -1251.41 -1210.64 301.437 297.519
6383.78 -1191.77 -1214 301.214 369.397
6386.63 -1198.82 -1204.62 505.539 461.822
6389.47 -1223.26 -1199.51 578.713 559.608
6392.32 -1176.46 -1187.07 594.571 593.562
6395.16 -1161.5 -1186.47 607.402 628.301
6398.01 -1221.46 -1185.51 682.93 702.017
6400.85 -1173.57 -1194.65 815.72 755.76
6403.69 -1188.91 -1175.62 768.631 748.436
6406.54 -1164.37 -1161.15 660.957 688.64
6409.38 -1130.18 -1136.96 636.333 655.623
6412.22 -1116.33 -1127.67 669.581 674.222
6415.07 -1136.5 -1132.71 716.751 678.273
6417.91 -1145.29 -1149.32 648.488 676.872
6420.75 -1166.18 -1153.41 665.377 715.296
6423.6 -1148.76 -1149.01 832.022 724.889
6426.44 -1132.07 -1150.55 677.268 728.125
6429.28 -1170.81 -1148.24 675.087 706.186
6432.12 -1141.83 -1133.72 766.204 733.52
6434.97 -1088.51 -1135.48 759.27 787.266
6437.81 -1176.09 -1124.13 836.324 791.975
6440.65 -1107.81 -1151.15 780.332 803.83
6443.49 -1169.54 -1141.99 794.833 822.927
6446.33 -1148.61 -1173.57 893.614 800.864
6449.18 -1202.55 -1136.08 714.144 775.713
6452.02 -1057.08 -1130.83 719.379 742.718
6454.86 -1132.86 -1078.97 794.63 797.889
6457.7 -1046.97 -1083.5 879.658 816.313
6460.54 -1070.66 -1070.82 774.651 887.197
6463.38 -1094.83 -1080.33 1007.28 922.87
6466.22 -1075.49 -1110.86 986.677 968.786
6469.06 -1162.25 -1112.76 912.399 890.442
6471.9 -1100.55 -1120.96 772.252 812.631
6474.74 -1100.09 -1122.39 753.243 734.15
6477.58 -1166.53 -1129.3 676.957 701.167
6480.42 -1121.27 -1134.46 673.302 665.582
6483.26 -1115.59 -1130.39 646.488 663.208
6486.1 -1154.32 -1137.77 669.834 682.251
6488.94 -1143.42 -1149.55 730.431 725.715
6491.78 -1150.91 -1108.07 776.881 866.112
6494.62 -1029.89 -1067.85 1091.03 965.278
6497.46 -1022.76 -1049.23 1027.93 1070.17
6500.3 -1095.03 -1075.36 1091.57 1010.37
6503.14 -1108.29 -1096.3 911.616 953.614
6505.98 -1085.58 -1096.93 857.66 830.894
6508.82 -1096.9 -1102.22 723.406 697.73
6511.66 -1124.17 -1148.86 512.123 597.371
6514.49 -1225.51 -1155.76 556.585 609.823
6517.33 -1117.59 -1151.51 760.762 729.613
6520.17 -1111.41 -1112.48 871.493 837.614
6523.01 -1108.44 -1124.33 880.588 873.211
6525.84 -1153.13 -1133.65 867.551 938.407
6528.68 -1139.37 -1158.21 1067.08 945.591
6531.52 -1182.12 -1147.31 902.14 958.449
6534.36 -1120.42 -1125.16 906.124 900.773
6537.19 -1072.93 -1100.23 894.054 885.816
6540.03 -1107.33 -1104.83 857.27 873.234
6542.87 -1134.24 -1136.47 868.376 884.18
6545.7 -1167.85 -1116.66 926.894 905.577
6548.54 -1047.88 -1069.08 921.461 933.336
6551.38 -991.497 -975.003 951.654 959.484
6554.21 -885.631 -864.55 1005.34 953.666
6557.05 -716.523 -717.339 904.006 907.877
6559.89 -549.865 -556.907 814.287 858.897
6562.72 -404.333 -499.137 858.398 822.311
6565.56 -543.212 -526.626 794.247 808.538
6568.39 -632.332 -653.536 772.968 832.433
6571.23 -785.065 -722.361 930.083 864.379
6574.06 -749.685 -818.439 890.085 926.946
6576.9 -920.567 -867.643 960.669 907.402
6579.73 -932.678 -970.347 871.451 856.437
6582.57 -1057.8 -1025.27 737.191 811.292
6585.4 -1085.35 -1068.74 825.233 810.865
6588.24 -1063.07 -1054.76 870.171 846.121
6591.07 -1015.85 -1079.98 842.96 876.726
6593.9 -1161.03 -1082.25 917.046 958.721
6596.74 -1069.87 -1111.43 1116.16 1005.04
6599.57 -1103.39 -1073 981.92 1009.44
6602.4 -1045.74 -1080.03 930.234 956.432
6605.24 -1090.97 -1075.17 957.142 967.992
6608.07 -1088.79 -1092.07 1016.6 944.756
6610.9 -1096.44 -1086.13 860.528 949.001
6613.74 -1073.14 -1083.88 969.876 914.898
6616.57 -1082.05 -1102.93 914.289 909.223
6619.4 -1153.59 -1097.29 843.503 938.259
6622.24 -1056.24 -1092.21 1056.98 973.936
6625.07 -1066.79 -1077.87 1021.32 1068.82
6627.9 -1110.59 -1082.01 1128.14 1086.78
6630.73 -1068.66 -1072.93 1110.88 1121.21
6633.56 -1039.54 -1041.83 1124.6 1107.53
6636.4 -1017.31 -1033.73 1087.1 1078.97
6639.23 -1044.34 -1030.62 1025.2 1008.72
6642.06 -1030.22 -1042.05 913.863 983.35
6644.89 -1051.6 -1049.18 1010.99 964.406
6647.72 -1065.73 -1059.58 968.37 1036.06
6650.55 -1061.43 -1075.95 1128.83 1058.3
6653.38 -1100.69 -1068.42 1077.7 1112.35
6656.21 -1043.16 -1065.67 1130.53 1126.43
6659.04 -1053.18 -1044.76 1171.07 1143
6661.87 -1037.94 -1037.33 1127.39 1114.39
6664.7 -1020.88 -1018.28 1044.69 1138.63
6667.54 -996.038 -997.507 1243.79 1164.09
6670.36 -975.606 -997.507 1203.78 1263.33
6673.19 -1020.88 -1011.06 1342.43 1275.68
6676.02 -1036.7 -1026.63 1280.83 1309.58
6678.85 -1022.31 -1032.59 1305.47 1307.19
6681.68 -1038.76 -1030.77 1335.27 1279.77
6684.51 -1031.24 -1011.95 1198.56 1217.48
6687.34 -965.84 -1007.76 1118.63 1173.92
6690.17 -1026.19 -991.718 1204.57 1200.82
6693 -983.122 -1015.45 1279.27 1206.23
6695.83 -1037.04 -1007.06 1134.84 1218.23
6698.66 -1001.01 -1036.78 1240.58 1189.26
6701.48 -1072.27 -1036.13 1192.36 1214.25
6704.31 -1035.09 -1051.33 1209.81 1230.86
6707.14 -1046.61 -1029.19 1290.41 1280.56
6709.97 -1005.87 -1029.57 1341.45 1293.54
6712.79 -1036.22 -997.858 1248.75 1284.3
6715.62 -951.477 -996.523 1262.71 1290.13
6718.45 -1001.87 -989.293 1358.92 1245.38
6721.28 -1014.53 -1001.23 1114.52 1238.59
6724.1 -987.28 -1015.93 1242.34 1167.72
6726.93 -1045.99 -1017.63 1146.29 1198.77
6729.76 -1019.61 -1037.49 1207.69 1215.55
6732.58 -1046.87 -1026.81 1292.66 1264.04
6735.41 -1013.95 -1030.72 1291.75 1294.86
6738.23 -1031.35 -990.496 1300.17 1309.96
6741.06 -926.188 -979.486 1337.98 1312.84
6743.89 -980.919 -959.341 1300.37 1311.61
6746.71 -970.916 -976.674 1296.49 1329.97
6749.54 -978.188 -954.116 1393.04 1334.59
6752.36 -913.243 -941.915 1314.24 1360.44
6755.19 -934.313 -919.979 1374.04 1326.13
6758.01 -912.379 -947.732 1290.12 1353.56
6760.84 -996.505 -963.282 1396.52 1342.21
6763.66 -980.961 -987.577 1339.99 1341.62
6766.49 -985.264 -963.284 1288.36 1324.59
6769.31 -923.627 -940.839 1345.4 1383.72
6772.14 -913.626 -929.114 1517.4 1450.61
6774.96 -950.09 -962.099 1489.02 1480.09
6777.78 -1022.58 -976.049 1433.84 1425.39
6780.61 -955.478 -984.373 1353.32 1360.5
6783.43 -975.061 -960.115 1294.33 1356.03
6786.25 -949.805 -968.947 1420.45 1418.08
6789.08 -981.975 -976.889 1539.45 1454.44
6791.9 -998.888 -972.911 1403.41 1459.28
6794.72 -937.87 -952.33 1434.97 1418.62
6797.55 -920.231 -947.471 1417.47 1440.92
6800.37 -984.313 -977.841 1470.33 1446.58
6803.19 -1028.98 -989.755 1451.93 1452.85
6806.01 -955.972 -999.508 1436.28 1489.53
6808.83 -1013.57 -953.095 1580.38 1510.89
6811.66 -889.742 -949.524 1516 1520.17
6814.48 -945.259 -929.302 1464.14 1480.28
6817.3 -952.904 -963.958 1460.7 1463.46
6820.12 -993.71 -947.653 1465.55 1509.98
6822.94 -896.345 -943.396 1603.7 1574.8
6825.76 -940.134 -923.837 1655.15 1702.28
6828.58 -935.033 -950.235 1847.98 1740.05
6831.41 -975.539 -940.037 1717.02 1642.21
6834.23 -909.538 -927.529 1361.62 1450.93
6837.05 -897.509 -896.465 1274.15 1380.22
6839.87 -882.347 -903.563 1504.89 1324.26
6842.69 -930.832 -888.372 1193.75 1370.56
6845.51 -851.936 -903.484 1413.06 1341.77
6848.33 -927.686 -1023.85 1418.52 1428.81
6851.15 -1291.93 -1166.39 1454.86 1464.2
6853.97 -1279.55 -1297.75 1519.24 1573.04
6856.78 -1321.77 -1275.28 1745.02 1723.63
6859.6 -1224.52 -1251.35 1906.65 1805.45
6862.42 -1207.75 -1201.26 1764.69 1684.24
6865.24 -1171.51 -1116.86 1381.38 1383.95
6868.06 -971.307 -1045.22 1005.79 1143.37
6870.88 -992.832 -982.8 1042.95 1093.34
6873.7 -984.261 -986.679 1231.29 1198.01
6876.51 -982.944 -1011.69 1319.81 1324.76
6879.33 -1067.88 -1024.66 1423.19 1377.87
6882.15 -1023.17 -1052.46 1390.6 1436.72
6884.97 -1066.33 -1043.53 1496.38 1447.93
6887.79 -1041.09 -1055.94 1456.81 1466.97
6890.6 -1060.4 -1058.41 1447.71 1428.52
6893.42 -1073.73 -1039.56 1381.04 1474.62
6896.24 -984.544 -1044.18 1595.13 1536.15
6899.05 -1074.26 -1054.78 1632.29 1600.89
6901.87 -1105.55 -1113.08 1575.24 1587.02
6904.69 -1159.45 -1130.58 1553.53 1609.42
6907.5 -1126.73 -1129.03 1699.5 1618.14
6910.32 -1100.9 -1108.74 1601.39 1598.82
6913.13 -1098.59 -1119.42 1495.56 1586.6
6915.95 -1158.77 -1125 1662.84 1649.57
6918.77 -1117.64 -1154.56 1790.3 1764.5
6921.58 -1187.27 -1156.04 1840.36 1727.44
6924.4 -1163.22 -1177.55 1551.67 1700.07
6927.21 -1182.17 -1175.35 1708.19 1706.76
6930.03 -1180.67 -1177.05 1860.44 1790.54
6932.84 -1168.3 -1181.86 1802.98 1874.13
6935.66 -1196.6 -1161.24 1958.99 1879.31
6938.47 -1118.83 -1165.65 1875.96 1945.59
6941.28 -1181.52 -1181.05 2001.82 1934.18
6944.1 -1242.8 -1210.01 1924.76 1891.61
6946.91 -1205.71 -1204.76 1748.24 1855.9
6949.73 -1165.77 -1210.09 1894.7 1829.35
6952.54 -1258.78 -1196.39 1845.12 1926.17
6955.35 -1164.6 -1176.14 2038.7 1965.31
6958.17 -1105.02 -1163 2012.11 1964.06
6960.98 -1219.39 -1176.05 1841.35 1893.29
6963.79 -1203.75 -1185.49 1826.41 1808.49
6966.6 -1133.34 -1160.72 1757.7 1752.36
6969.42 -1145.06 -1171.67 1672.97 1714.88
6972.23 -1236.62 -1179.51 1713.98 1679.5
6975.04 -1156.84 -1174.94 1651.56 1734.53
6977.85 -1131.37 -1146.56 1838.05 1709.38
6980.66 -1151.48 -1152.56 1638.54 1693.48
6983.48 -1174.82 -1167.53 1603.85 1680.18
6986.29 -1176.28 -1180.56 1798.13 1745.61
6989.1 -1190.58 -1190.98 1834.85 1814.12
6991.91 -1206.08 -1160.63 1809.38 1870.12
6994.72 -1085.23 -1154.13 1966.11 1848.51
6997.53 -1171.07 -1130.16 1770.03 1861.15
7000.34 -1134.18 -1128.48 1847.3 1803.31
7003.15 -1080.18 -1111.29 1792.59 1827.66
7005.96 -1119.52 -1094.94 1843.08 1869.7
7008.77 -1085.11 -1100.72 1973.43 1871.96
7011.58 -1097.54 -1115.27 1799.37 1880.72
7014.39 -1163.14 -1098.74 1869.36 1840.73
7017.2 -1035.55 -1114.94 1853.47 1924.18
7020.01 -1146.13 -1084.59 2049.71 1937.38
7022.82 -1072.08 -1113 1908.97 1935.61
7025.63 -1120.79 -1091.13 1848.14 1913.32
7028.44 -1080.52 -1100.04 1982.87 1901.56
7031.25 -1098.81 -1090.38 1873.69 1989.19
7034.05 -1091.81 -1097.42 2111.02 1980.23
7036.86 -1101.64 -1100.9 1955.97 2041.56
7039.67 -1109.26 -1119.13 2057.71 2002.95
7042.48 -1146.5 -1109.85 1995.17 1988.88
7045.29 -1073.78 -1100.8 1913.77 1992.46
7048.09 -1082.11 -1074.01 2068.44 2012.32
7050.9 -1066.14 -1062.29 2054.75 2019.51
7053.71 -1038.63 -1074.8 1935.34 1974.4
7056.52 -1119.64 -1069.62 1933.11 1943.39
7059.32 -1050.59 -1094.72 1961.71 2031.66
7062.13 -1113.93 -1071.89 2200.16 2119.22
7064.94 -1051.16 -1080.87 2195.79 2247.12
7067.74 -1077.52 -1049.38 2345.4 2297.74
7070.55 -1019.45 -1046.96 2352.04 2378.01
7073.35 -1043.92 -1027.37 2436.58 2374.99
7076.16 -1018.74 -1047.22 2336.36 2410.1
7078.97 -1078.99 -1062.9 2457.35 2393.7
7081.77 -1090.98 -1081.31 2387.4 2412.13
7084.58 -1073.95 -1079.09 2391.65 2453.08
7087.38 -1072.33 -1053.79 2580.18 2496.05
7090.19 -1015.08 -1051.86 2516.33 2492.16
7092.99 -1068.17 -1040.32 2379.97 2430.82
7095.8 -1037.72 -1052.79 2396.15 2452.31
7098.6 -1052.47 -1041.22 2580.82 2479.01
7101.4 -1033.47 -1053.23 2460.07 2563.47
7104.21 -1073.75 -1044.95 2649.53 2560.65
7107.01 -1027.62 -1061.1 2572.34 2584.37
7109.82 -1081.93 -1043.72 2531.23 2592.07
7112.62 -1021.61 -1042.58 2672.63 2596.96
7115.42 -1024.2 -1023.55 2587 2674.52
7118.23 -1024.84 -1020.39 2763.92 2687.19
7121.03 -1012.13 -1015.28 2710.66 2652.9
7123.83 -1008.86 -1021.25 2484.13 2625.25
7126.63 -1042.77 -1019.58 2680.96 2538.52
7129.44 -1007.12 -1023.52 2450.46 2596.8
7132.24 -1020.66 -986.585 2658.98 2599.36
7135.04 -931.976 -998.175 2688.64 2725.4
7137.84 -1041.89 -983.39 2828.58 2692.34
7140.64 -976.305 -997.383 2559.8 2703.44
7143.45 -973.956 -963.665 2721.95 2631.38
7146.25 -940.734 -947.776 2612.4 2679.53
7149.05 -928.639 -955.713 2704.23 2685.9
7151.85 -997.767 -968.714 2741.06 2713.22
7154.65 -979.736 -992.792 2694.37 2720.31
7157.45 -1000.87 -982.965 2725.51 2727.7
7160.25 -968.285 -967.924 2763.21 2766.49
7163.05 -934.614 -943.021 2810.75 2747.87
7165.85 -926.165 -944.388 2669.66 2715.67
7168.65 -972.385 -951.549 2666.6 2639.47
7171.45 -956.096 -967.936 2582.15 2600.6
7174.25 -975.327 -951.769 2553.06 2556.82
7177.05 -923.885 -948.934 2535.26 2590.7
7179.85 -947.59 -918.143 2683.78 2594.82
7182.65 -882.954 -885.674 2565.43 2546.02
7185.45 -826.477 -841.439 2388.87 2567.65
7188.24 -814.886 -836.747 2748.65 2561.52
7191.04 -868.879 -847.469 2547.05 2689.74
7193.84 -858.641 -862.914 2773.52 2693.39
7196.64 -861.222 -850.916 2759.59 2746.3
7199.44 -832.884 -853.008 2705.79 2762.44
7202.23 -864.919 -831.761 2821.94 2766.34
7205.03 -797.482 -838.811 2771.3 2829.14
7207.83 -854.031 -822.543 2894.19 2828.46
7210.63 -816.116 -850.128 2819.89 2895.14
7213.42 -880.236 -875.121 2971.35 2836.17
7216.22 -929.01 -895.672 2717.27 2838
7219.02 -877.769 -901.596 2825.39 2797.35
7221.81 -898.007 -885.353 2849.39 2855.75
7224.61 -880.284 -899.75 2892.46 2780.62
7227.41 -920.96 -890.91 2600 2680.64
7230.2 -871.487 -874.569 2549.44 2486.2
7233 -831.26 -868.328 2309.17 2439.17
7235.79 -902.237 -837.672 2458.9 2487.11
7238.59 -779.518 -870.366 2693.25 2765.79
7241.38 -929.343 -845.062 3145.22 3056.85
7244.18 -826.324 -888.139 3332.09 3275.76
7246.97 -908.751 -868.951 3349.96 3355.2
7249.77 -871.779 -888.859 3383.56 3321.38
7252.56 -886.047 -892.714 3230.62 3200.13
7255.35 -920.315 -886.014 2986.2 3177.37
7258.15 -851.681 -885.029 3315.27 3123.18
7260.94 -883.092 -858.086 3068.07 3155.17
7263.74 -839.485 -856.049 3082.16 2878.09
7266.53 -845.571 -838.458 2484.05 2709.4
7269.32 -830.317 -814.968 2561.99 2632.67
7272.11 -769.017 -800.064 2851.96 2880.2
7274.91 -800.86 -789.977 3226.64 3198.49
7277.7 -800.054 -817.47 3516.87 3445.7
7280.49 -851.496 -830.027 3593.59 3571.88
7283.28 -838.531 -845.233 3605.19 3596.62
7286.08 -845.672 -842.866 3591.07 3535.37
7288.87 -844.396 -824.565 3409.84 3450.69
7291.66 -783.627 -819.426 3351.16 3416.31
7294.45 -830.254 -791.368 3487.93 3425.89
7297.24 -760.223 -792.15 3438.58 3385.15
7300.03 -785.973 -788.868 3228.94 3334.06
7302.82 -820.408 -817.175 3334.65 3246.4
7305.62 -845.144 -827.105 3175.61 3128.6
7308.41 -815.763 -813.245 2875.52 3128.68
7311.2 -778.828 -783.823 3334.92 3285.77
7313.99 -756.877 -774.042 3646.88 3570.32
7316.78 -786.421 -797.651 3729.16 3729.53
7319.57 -849.654 -822.94 3812.54 3809.65
7322.35 -832.746 -828.104 3887.24 3820.17
7325.14 -801.911 -811.456 3760.73 3673.08
7327.93 -799.711 -815.461 3371.28 3439.31
7330.72 -844.761 -810.179 3185.93 3274.32
7333.51 -786.066 -815.352 3265.76 3312.85
7336.3 -815.23 -808.419 3486.86 3579.83
7339.09 -823.962 -832.536 3986.88 3924.11
7341.88 -858.415 -856.626 4298.58 4251.86
7344.66 -887.499 -874.669 4470.13 4196.12
7347.45 -878.093 -867.351 3819.63 4009.81
7350.24 -836.46 -847.793 3739.67 3793.03
7353.03 -828.826 -826.853 3819.79 3743.59
7355.81 -815.273 -834.138 3671.32 3813.32
7358.6 -858.316 -827.531 3948.85 3830.11
7361.39 -809.002 -824.432 3870.15 3849.05
7364.17 -805.976 -805.044 3728.15 3954.39
7366.96 -800.154 -793.443 4264.88 4116.2
7369.75 -774.199 -783.763 4355.57 4380.28
7372.53 -776.935 -780.808 4520.4 4406.51
7375.32 -791.291 -792.652 4343.56 4356.1
7378.1 -809.729 -797.819 4204.34 4186.47
7380.89 -792.436 -799.922 4011.49 4138.47
7383.67 -797.6 -798.849 4199.59 4058.85
7386.46 -806.509 -776.417 3965.47 4024.02
7389.24 -725.14 -752.089 3906.99 3939.22
7392.03 -724.619 -734.193 3945.2 3893.99
7394.81 -752.82 -751.998 3829.78 3982.14
7397.6 -778.555 -786.153 4171.44 4153.27
7400.38 -827.083 -785.588 4458.6 4347.16
7403.17 -751.125 -808.373 4411.44 4427.03
7405.95 -846.91 -799.627 4411.04 4343.62
7408.73 -800.845 -802.613 4208.36 4295.07
7411.52 -760.083 -767.348 4265.82 4231.96
7414.3 -741.114 -766.855 4221.7 4238.23
7417.08 -799.369 -764.759 4227.18 4292.46
7419.86 -753.793 -761.215 4428.5 4277.47
7422.65 -730.482 -756.328 4176.74 4345.35
7425.43 -784.709 -753.391 4430.8 4332.19
7428.21 -744.982 -747.78 4389.03 4476.84
7430.99 -713.648 -745.226 4610.7 4451.49
7433.78 -777.049 -746.222 4354.75 4473.89
7436.56 -747.97 -775.201 4456.23 4524.76
7439.34 -800.583 -755.127 4763.29 4652.7
7442.12 -716.828 -756.642 4738.59 4661.22
7444.9 -752.516 -721.931 4481.79 4584.01
7447.68 -696.45 -735.595 4531.65 4443.98
7450.46 -757.82 -737.185 4318.48 4408.9
7453.24 -757.283 -758.695 4376.56 4388.45
7456.02 -760.982 -763.116 4470.31 4417.24
7458.8 -771.083 -765.618 4404.84 4309.62
7461.58 -764.788 -757.148 4053.7 4305.1
7464.36 -735.572 -758.28 4456.75 4366.78
7467.14 -774.481 -748.037 4589.88 4554.83
7469.92 -734.056 -749.092 4617.85 4614.68
7472.7 -738.739 -730.693 4636.31 4698.53
7475.48 -719.285 -720.453 4841.44 4767.71
7478.25 -703.336 -715.759 4825.37 4965.64
7481.03 -724.655 -729.36 5230.1 5041.8
7483.81 -760.089 -746.819 5069.93 5127.28
7486.59 -755.713 -751.267 5081.82 5050.45
7489.37 -738 -757.366 4999.61 5005.35
7492.14 -778.384 -746.015 4934.62 4984.51
7494.92 -721.66 -724.28 5019.28 4911.96
7497.7 -672.796 -708.598 4781.97 4882.88
7500.48 -731.337 -697.189 4847.39 4831.59
7503.25 -687.435 -716.826 4865.4 4762.73
7506.03 -731.705 -711.774 4575.39 4702.07
7508.8 -716.182 -720.217 4665.44 4611.45
7511.58 -712.763 -705.485 4593.52 4623.38
7514.36 -687.511 -694.958 4611.18 4618.59
7517.13 -684.601 -699.773 4651.08 4872.75
7519.91 -727.206 -703.734 5355.99 5109.74
7522.68 -699.393 -714.637 5322.14 5384.21
7525.46 -717.312 -686.863 5474.5 5402.22
7528.23 -643.883 -681.477 5410.02 5474.43
7531.01 -683.236 -677.976 5538.76 5555.65
7533.78 -706.808 -704.69 5718.16 5485.72
7536.56 -724.026 -714.233 5200.25 5385.83
7539.33 -711.866 -709.1 5239.09 5188.42
7542.1 -691.407 -698.842 5125.92 5177.94
7544.88 -693.252 -699.821 5168.8 5135.39
7547.65 -714.803 -693.025 5111.44 5106.85
7550.42 -671.019 -698.49 5040.3 5094.97
7553.2 -709.646 -686.095 5133.16 5098.05
7555.97 -677.62 -691.778 5120.68 5133.46
7558.74 -688.068 -679.812 5146.53 5160.09
7561.51 -673.749 -679.203 5213.06 5105.21
7564.29 -675.792 -689.23 4956.04 5189.31
7567.06 -718.15 -694.167 5398.83 5328.77
7569.83 -688.558 -686.432 5631.43 5494.31
7572.6 -652.588 -665.627 5452.66 5520.69
7575.37 -655.735 -662.3 5477.98 5504.08
7578.14 -678.576 -660 5581.61 5476.08
7580.92 -645.689 -661.334 5368.66 5495.57
7583.69 -659.738 -631.208 5536.45 5344.06
7586.46 -588.198 -622.274 5127.06 5219.65
7589.23 -618.885 -590.462 4995.43 4838.72
7592 -564.301 -561.423 4393.68 4257.58
7594.77 -501.082 -477.233 3383.63 3378.28
7597.54 -366.315 -364.375 2357.54 2503.98
7600.31 -225.728 -250.426 1770.78 1840.47
7603.07 -159.235 -175.207 1393.09 1491.19
7605.84 -140.659 -149.982 1309.71 1370.82
7608.61 -150.052 -154.003 1409.67 1527.06
7611.38 -171.298 -192.411 1861.79 2011.3
7614.15 -255.882 -259.276 2762.44 2696.23
7616.92 -350.649 -335.89 3464.46 3302.09
7619.69 -401.138 -386.719 3679.37 3436.96
7622.45 -408.37 -372.092 3167.06 3283.8
7625.22 -306.769 -349.525 3004.97 2968.48
7627.99 -333.435 -319.933 2733.41 2867.71
7630.76 -319.596 -316.862 2864.76 2754.09
7633.52 -297.554 -311.617 2664.1 2854.59
7636.29 -317.701 -313.913 3034.9 2907.08
7639.06 -326.484 -332.161 3022.25 3099.49
7641.82 -352.298 -343.693 3241.32 3238.16
7644.59 -352.298 -371.32 3450.9 3401.95
7647.35 -409.364 -389.74 3513.63 3591.1
7650.12 -407.557 -415.664 3808.77 3797.74
7652.89 -430.072 -429.359 4070.82 4087.54
7655.65 -450.449 -431.211 4383.03 4334.77
7658.42 -413.112 -447.202 4550.47 4512.13
7661.18 -478.045 -457.709 4602.89 4676.59
7663.95 -481.97 -473.255 4876.42 4809.33
7666.71 -459.749 -474.245 4948.67 4973.39
7669.47 -481.016 -474.621 5095.07 5142.01
7672.24 -483.097 -497.55 5382.3 5230.19
7675 -528.537 -521.394 5213.2 5312.78
7677.76 -552.548 -542.998 5342.84 5222.17
7680.53 -547.909 -557.297 5110.46 5420.56
7683.29 -571.433 -553.572 5808.38 5421.06
7686.05 -541.373 -566.084 5344.34 5601
7688.82 -585.446 -549.936 5650.26 5512.81
7691.58 -522.989 -566.04 5543.83 5524.04
7694.34 -589.685 -542.945 5378.04 5360.94
7697.1 -516.16 -558.983 5160.95 5246.99
7699.87 -571.103 -558.264 5201.98 5133.79
7702.63 -587.529 -581.99 5038.46 5065.95
7705.39 -587.338 -595.105 4957.41 5094.34
7708.15 -610.447 -594.608 5287.15 5369.49
7710.91 -586.039 -596.775 5863.91 5957.28
7713.67 -593.84 -579.252 6720.79 6479.52
7716.43 -557.876 -570.564 6853.84 6830.11
7719.19 -559.977 -624.948 6915.69 6663.39
7721.95 -756.992 -702.539 6220.62 6550.51
7724.71 -790.65 -775.125 6515.22 6271.48
7727.47 -777.734 -773.429 6078.6 6120.07
7730.23 -751.902 -774.376 5766.4 5883.33
7732.99 -793.493 -762.993 5804.98 5664.63
7735.75 -743.584 -765.09 5422.5 5501.82
7738.51 -758.194 -729.539 5277.98 5197.76
7741.27 -686.84 -717.945 4892.8 5211.86
7744.03 -708.802 -688.111 5464.8 5376.46
7746.78 -668.691 -714.688 5771.77 5822.69
7749.54 -766.57 -717.86 6231.5 6271.01
7752.3 -718.318 -744.215 6809.76 6581.18
7755.06 -747.757 -722.664 6702.27 6605.77
7757.81 -701.917 -714.514 6305.28 6466.3
7760.57 -693.867 -717.569 6391.35 6338.08
7763.33 -756.921 -708.999 6317.61 6272.87
7766.08 -676.208 -702.32 6109.65 6139.93
7768.84 -673.831 -674.714 5992.54 6028.7
7771.6 -674.104 -681.16 5983.91 5970.47
7774.35 -695.545 -680.402 5934.97 5836.23
7777.11 -671.556 -680.321 5589.82 5755.76
7779.86 -673.862 -684.154 5742.5 5671.54
7782.62 -707.044 -681.244 5682.29 5655.22
7785.37 -662.827 -677.574 5540.88 5595.19
7788.13 -662.85 -682.531 5562.4 5809.41
7790.88 -721.915 -702.034 6324.96 6152.53
7793.64 -721.338 -707.655 6570.23 6562.49
7796.39 -679.712 -697.488 6792.28 6497.49
7799.15 -691.415 -687.567 6129.96 6255.45
7801.9 -691.574 -683.974 5844.11 5979.19
7804.65 -668.932 -685.294 5963.51 5933.41
7807.41 -695.375 -693.448 5992.61 5874.45
7810.16 -716.038 -713.73 5667.25 5877.87
7812.91 -729.778 -703.418 5973.76 5809.87
7815.67 -664.439 -674.771 5788.61 6199.51
7818.42 -630.097 -656.789 6836.16 6622.39
7821.17 -675.832 -678.096 7242.41 7057.43
7823.92 -728.36 -708.315 7093.73 7031.44
7826.67 -720.753 -706.098 6758.17 6714.49
7829.43 -669.182 -685.262 6291.57 6341.9
7832.18 -665.851 -661.962 5975.94 5977.67
7834.93 -650.852 -667.611 5665.49 5777.05
7837.68 -686.13 -647.711 5689.7 5604.81
7840.43 -606.152 -653.44 5459.22 5542.31
7843.18 -668.037 -649.245 5478 5482.73
7845.93 -673.546 -644.909 5510.97 5581.54
7848.68 -593.143 -624.802 5755.66 5835.41
7851.43 -607.718 -614.914 6239.59 6263.21
7854.18 -643.881 -632.628 6794.39 6568.59
7856.93 -646.285 -629.521 6671.78 6720.72
7859.68 -598.397 -611.21 6695.99 6507.68
7862.43 -588.948 -614.627 6155.28 6398.86
7865.18 -656.536 -637.919 6345.3 6270.23
7867.92 -668.272 -659.149 6310.12 6341.66
7870.67 -652.64 -650.867 6369.56 6274.89
7873.42 -631.688 -629.471 6145 6265.08
7876.17 -604.086 -634.548 6280.69 6258.46
7878.92 -667.869 -628.491 6349.68 6381.88
7881.66 -613.52 -640.975 6515.27 6399.13
7884.41 -641.536 -632.276 6332.43 6558.92
7887.16 -641.773 -610.454 6829.05 6498.98
7889.9 -548.054 -585.469 6335.45 6401.06
7892.65 -566.58 -576.991 6038.69 6177.39
7895.4 -616.337 -597.147 6158.03 6002.4
7898.14 -608.524 -608.649 5810.47 5905.59
7900.89 -601.085 -618.353 5748.27 5554.95
7903.63 -645.449 -618.954 5106.1 5403.54
7906.38 -610.327 -601.717 5356.26 5436.49
7909.12 -549.375 -595.285 5847.12 5927.94
7911.87 -626.154 -590.584 6580.45 6499.16
7914.61 -596.224 -594.641 7069.91 6867.78
7917.36 -561.546 -598.36 6952.97 6940.89
7920.1 -637.311 -592.788 6799.79 6817.24
7922.84 -579.508 -587.902 6698.98 6629.97
7925.59 -546.888 -577.517 6391.16 6470.89
7928.33 -606.155 -592.587 6322.53 6368.36
7931.08 -624.719 -601.801 6391.4 6293.2
7933.82 -574.529 -598.297 6165.67 6244.94
7936.56 -595.644 -582.28 6177.75 6180.58
7939.3 -576.668 -570.732 6198.32 6125.75
7942.05 -539.882 -550.437 6001.2 5994.4
7944.79 -534.759 -540.115 5783.68 5896.42
7947.53 -545.704 -549.558 5904.38 5891.55
7950.27 -568.21 -569.148 5986.58 5987.6
7953.01 -593.529 -580.875 6071.84 5920.75
7955.75 -580.887 -573.555 5703.84 5802.48
7958.49 -546.25 -550.978 5631.76 5869.44
7961.23 -525.798 -524.536 6272.73 6213.71
7963.98 -501.56 -525.267 6736.64 6577.37
7966.72 -548.443 -545.614 6722.75 6714.05
7969.46 -586.84 -559.305 6682.76 6584.85
7972.2 -542.631 -560.377 6349.05 6390.58
7974.93 -551.661 -550.217 6139.94 6152.84
7977.67 -556.358 -543.284 5969.52 6079.74
7980.41 -521.832 -547.192 6129.76 6040.36
7983.15 -563.386 -528.24 6021.81 5940.77
7985.89 -499.503 -540.679 5670.73 6067.16
7988.63 -559.148 -516.393 6508.93 6244.85
7991.37 -490.527 -501.384 6554.89 6738.72
7994.1 -454.477 -504.154 7152.33 6877.5
7996.84 -567.457 -507.854 6925.27 6841.61
7999.58 -501.627 -530.131 6447.21 6468.63
8002.32 -521.308 -505.031 6033.4 6088.59
8005.05 -492.158 -520.44 5785.17 5961.29
8007.79 -547.854 -527.853 6065.29 6006.43
8010.53 -543.548 -535.956 6168.84 6028.79
8013.26 -516.465 -533.235 5852.25 6066.6
8016 -539.693 -535.461 6178.7 6004.24
8018.74 -550.224 -533.804 5981.77 6100.05
8021.47 -511.496 -504.682 6139.68 6319.15
8024.21 -452.327 -496.664 6836 6664.94
8026.94 -526.168 -476.044 7019.15 6795.81
8029.68 -449.638 -513.627 6532.27 6709.05
8032.41 -565.075 -523.653 6575.72 6561.21
8035.14 -556.246 -538.403 6575.65 6465.67
8037.88 -493.888 -522.45 6245.64 6314.24
8040.61 -517.216 -515.242 6121.43 6101.93
8043.35 -534.623 -510.035 5938.73 6010.02
8046.08 -478.266 -495.183 5969.92 5971.16
8048.81 -472.66 -480.5 6004.83 6049.89
8051.55 -490.575 -499.185 6174.94 6032.45
8054.28 -534.319 -513.923 5917.6 6108.82
8057.01 -516.876 -509.283 6233.93 6162.09
8059.74 -476.653 -504.31 6334.75 6440.37
8062.48 -519.401 -503.189 6752.44 6565.38
8065.21 -513.514 -514.225 6608.96 6610.16
8067.94 -509.761 -495.707 6469.09 6365.55
8070.67 -463.845 -481.927 6018.62 6288.04
8073.4 -472.174 -475.56 6376.42 6255.89
8076.13 -490.66 -493.567 6372.64 6264.59
8078.86 -517.866 -498.244 6044.71 6201.36
8081.59 -486.207 -501.854 6186.74 6130.64
8084.32 -501.489 -477.489 6160.47 6063.81
8087.05 -444.772 -471.577 5844.21 6012.51
8089.78 -468.471 -461.325 6032.86 5943.7
8092.51 -470.733 -476.61 5954.02 6063.76
8095.24 -490.626 -481.416 6204.39 6091.67
8097.97 -482.89 -482.709 6116.6 6169.28
8100.7 -474.61 -472.044 6186.84 6189.81
8103.43 -458.633 -472.791 6265.99 6157.3
8106.16 -485.131 -466.047 6019.07 6125.89
8108.88 -454.377 -469.261 6092.61 6028.38
8111.61 -468.274 -473.05 5973.46 6055.98
8114.34 -496.498 -472.95 6101.86 6023.97
8117.07 -454.079 -463.471 5996.59 6044.66
8119.79 -439.837 -459.52 6035.55 6034.06
8122.52 -484.643 -462.873 6070.06 6022.95
8125.25 -464.138 -480.802 5963.26 6060.3
8127.97 -493.626 -463.684 6147.58 6011.44
8130.7 -433.289 -463.37 5923.47 6032.27
8133.42 -463.196 -446.076 6025.76 5992.62
8136.15 -441.743 -452.972 6028.64 5939.98
8138.87 -453.977 -445.971 5765.54 5917.54
8141.6 -442.194 -444.911 5958.44 5840.77
8144.32 -438.563 -436.579 5798.34 5850.04
8147.05 -428.981 -436.851 5793.33 5848.85
8149.77 -443.008 -668.009 5954.9 8371.91
8152.5 -1132.04 -664.765 13367.5 8356.87
8155.22 -419.251 -661.689 5748.19 8291.79
8157.94 -433.78 -430.511 5759.66 5686.09
8160.67 -438.503 -431.175 5550.43 5614.2
8163.39 -421.243 -412.89 5532.51 5510.78
8166.11 -378.925 -407.478 5449.39 5449.62
8168.84 -422.265 -407.357 5366.96 5478.64
8171.56 -420.882 -404.633 5619.57 5499.88
8174.28 -370.752 -406.086 5513.09 5513.27
8177 -426.624 -399.83 5407.16 5490.1
8179.72 -402.114 -403.014 5550.04 5420.12
8182.45 -380.304 -393.689 5303.15 5418.15
8185.17 -398.648 -381.3 5401.27 5378.87
8187.89 -364.949 -393.507 5432.2 5490.26
8190.61 -416.923 -394.456 5637.31 5538.24
8193.33 -401.495 -390.32 5545.22 5457.01
8196.05 -352.544 -384.009 5188.51 5358.1
8198.77 -397.99 -384.227 5340.57 5378.43
8201.49 -402.146 -411.552 5606.21 5653.1
8204.21 -434.52 -414.093 6012.53 5763.21
8206.93 -405.612 -425.86 5670.89 5907.4
8209.65 -437.447 -407.516 6038.78 5767.34
8212.36 -379.49 -408.305 5592.34 5742.37
8215.08 -407.978 -403.972 5595.99 5646.27
8217.8 -424.447 -414.813 5750.47 5651.66
8220.52 -412.014 -404.95 5608.52 5512.67
8223.24 -378.389 -393.898 5179.02 5327.71
8225.95 -391.289 -379.336 5195.6 5144.43
8228.67 -368.328 -369.978 5058.67 5062.47
8231.39 -350.316 -357.254 4933.13 5083.1
8234.11 -353.119 -371.262 5257.5 5222.29
8236.82 -410.35 -394.438 5476.24 5394.39
8239.54 -419.844 -398.324 5449.44 5519.91
8242.25 -364.776 -392.531 5634.04 5578.36
8244.97 -392.973 -386.384 5651.6 5759.27
8247.69 -401.403 -399.67 5992.17 5824.75
8250.4 -404.635 -399.386 5830.47 5858.03
8253.12 -392.122 -405.033 5751.44 5725.7
8255.83 -418.341 -398.447 5595.19 5691.98
8258.54 -384.878 -412.805 5729.31 5628.24
8261.26 -435.197 -386.972 5560.21 5589.98
8263.97 -340.842 -387.561 5480.41 5578.12
8266.69 -386.644 -385.221 5693.73 5575.58
8269.4 -428.177 -404.035 5552.61 5539.88
8272.11 -397.284 -409.623 5373.31 5362.57
8274.83 -403.41 -377.733 5161.78 5168.72
8277.54 -332.506 -359.458 4971.06 5100.93
8280.25 -342.459 -345.309 5169.96 5165.3
8282.96 -360.962 -346.232 5354.89 5238.43
8285.68 -335.276 -345.587 5190.46 5266.02
8288.39 -340.522 -339.256 5252.72 5197.14
8291.1 -341.971 -351.674 5148.24 5225.92
8293.81 -372.53 -363.925 5276.79 5319.5
8296.52 -377.273 -357.094 5533.45 5506.8
8299.23 -321.478 -345.925 5710.16 5732.63
8301.94 -339.024 -349.631 5954.29 5750.69
8304.65 -388.392 -348.244 5587.62 5729.46
8307.36 -317.317 -350.956 5646.48 5583.09
8310.07 -347.158 -349.07 5515.17 5605.79
8312.78 -382.735 -361.638 5655.73 5581.42
8315.49 -355.021 -381.839 5573.36 5623.77
8318.2 -407.762 -384.226 5642.22 5627.03
8320.91 -389.896 -392.747 5665.52 5598.03
8323.62 -380.583 -371.815 5486.35 5526.32
8326.32 -344.965 -348.599 5427.08 5423.24
8329.03 -320.249 -346.999 5356.28 5449.03
8331.74 -375.784 -343.856 5563.72 5267.89
8334.45 -335.536 -364.733 4883.67 4888.52
8337.15 -382.88 -329.138 4218.18 4503.46
8339.86 -268.998 -325.802 4408.52 4620.1
8342.57 -325.529 -280.808 5233.61 5070.6
8345.27 -247.896 -339.629 5569.66 5779.12
8347.98 -445.463 -357.463 6534.09 6107.23
8350.69 -379.029 -373.34 6217.94 6177.01
8353.39 -295.528 -344.347 5779.02 5914.19
8356.1 -358.483 -345.936 5745.62 5752.73
8358.8 -383.798 -360.866 5733.56 5655.97
8361.51 -340.317 -363.292 5488.72 5528.52
8364.21 -365.761 -354.625 5363.27 5473.52
8366.92 -357.796 -371.23 5568.58 5540.48
8369.62 -390.134 -371.118 5689.58 5585.36
8372.32 -365.424 -377.394 5497.93 5500.14
8375.03 -376.623 -356.538 5312.9 5332.46
8377.73 -327.568 -359.389 5186.55 5298.45
8380.43 -373.978 -339.613 5395.89 5392.79
8383.14 -317.293 -353.899 5595.92 5503.72
8385.84 -370.427 -353.096 5519.34 5529.49
8388.54 -371.567 -372.118 5473.19 5339.83
8391.24 -374.361 -363.453 5026.96 5183.88
8393.94 -344.431 -363.865 5051.5 5089.53
8396.65 -372.802 -362.627 5190.13 5328.56
8399.35 -370.648 -371.567 5744.07 5783.5
8402.05 -371.249 -373.068 6416.29 6095.15
8404.75 -377.307 -364.354 6125.09 6025.57
8407.45 -344.505 -359.788 5535.32 5659.54
8410.15 -357.55 -356.193 5318.2 5481.75
8412.85 -366.525 -360.188 5591.72 5460.84
8415.55 -356.488 -355.277 5472.59 5471.56
8418.25 -342.819 -346.884 5350.37 5368.21
8420.95 -341.345 -345.01 5281.67 5237.3
8423.65 -350.866 -340.876 5079.86 5049.63
8426.35 -330.417 -356.094 4787.35 5022.63
8429.04 -387 -353.522 5200.69 5142.27
8431.74 -343.15 -356.459 5438.76 5505.78
8434.44 -339.227 -343.13 5877.9 5679.52
8437.14 -347.014 -340.791 5721.9 5712.01
8439.83 -336.132 -338.196 5536.22 5570.54
8442.53 -331.441 -338.151 5453.51 5464.7
8445.23 -346.879 -346.5 5404.35 5340.95
8447.92 -361.178 -355.768 5164.99 5374.73
8450.62 -359.246 -349.284 5554.84 5351.23
8453.32 -327.429 -344.861 5333.85 5523.15
8456.01 -347.909 -339.046 5680.76 5370.8
8458.71 -341.799 -333.471 5097.81 5239.42
8461.4 -310.703 -318.124 4939.7 5048.98
8464.1 -301.869 -312.629 5109.43 5188.51
8466.79 -325.315 -312.181 5516.41 5384.55
8469.49 -309.36 -325.545 5527.82 5469.94
8472.18 -341.961 -329.426 5365.58 5431.41
8474.88 -336.957 -332.684 5400.82 5322.1
8477.57 -319.134 -336.453 5199.88 5277.97
8480.26 -353.269 -341.698 5233.19 5225.79
8482.96 -352.69 -345.678 5244.31 5285.57
8485.65 -331.075 -347.121 5379.21 5336.03
8488.34 -357.598 -349.135 5384.56 5314.81
8491.03 -358.733 -344.056 5180.65 5227.55
8493.73 -315.837 -336.396 5117.44 5041.43
8496.42 -334.619 -304.067 4826.2 4850.38
8499.11 -261.745 -299.47 4607.48 4860.55
8501.8 -302.047 -281.184 5147.95 4993.83
8504.49 -279.761 -304.348 5226.06 5179.8
8507.18 -331.236 -328.173 5165.4 5256.11
8509.87 -373.522 -353.705 5376.88 5224.93
8512.56 -356.358 -354.482 5132.51 5226.75
8515.25 -333.564 -336.817 5170.85 5156.19
8517.94 -320.527 -328.199 5165.2 5148.47
8520.63 -330.504 -327.368 5109.37 5143.35
8523.32 -331.071 -326.902 5155.48 5097.12
8526.01 -319.13 -316.737 5026.5 5045.72
8528.7 -300.01 -310.285 4955.16 5112.79
8531.39 -311.714 -319.199 5356.71 5206.03
8534.07 -345.872 -312.566 5306.21 5244.21
8536.76 -280.112 -313.61 5069.7 5068.55
8539.45 -314.846 -308.075 4829.75 4742.27
8542.14 -329.266 -317.827 4327.36 4436.94
8544.82 -309.369 -326.434 4153.73 4298.12
8547.51 -340.667 -348.764 4413.27 4533.47
8550.2 -396.257 -385.641 5033.41 4846.89
8552.88 -420 -414.263 5093.99 5109.71
8555.57 -426.533 -422.898 5201.73 5134.56
8558.25 -422.161 -422.953 5107.96 5128.28
8560.94 -420.165 -422.303 5075.16 5164.57
8563.62 -424.583 -426.059 5310.6 5239.91
8566.31 -433.429 -444.256 5333.97 5380.52
8568.99 -474.756 -440.452 5497 5378.7
8571.68 -413.171 -434.933 5305.13 5395.82
8574.36 -416.872 -422.975 5385.32 5341.3
8577.05 -438.883 -427.208 5333.45 5274.48
8579.73 -425.868 -438.779 5104.67 5272.14
8582.41 -451.587 -432.134 5378.31 5216.84
8585.09 -418.947 -431.171 5167.55 5269.33
8587.78 -422.978 -433.649 5262.13 5256.44
8590.46 -459.021 -430.381 5339.63 5245.71
8593.14 -409.143 -427.779 5135.38 5261.4
8595.82 -415.172 -408.956 5309.18 5133.82
8598.51 -402.553 -406.007 4956.89 5152.98
8601.19 -400.296 -408.148 5192.87 5070.69
8603.87 -421.595 -429.292 5062.31 5189.39
8606.55 -465.985 -435.608 5312.98 5240.32
8609.23 -419.244 -434.887 5345.66 5296.11
8611.91 -419.43 -422.412 5229.67 5247.1
8614.59 -428.562 -426.634 5165.98 5212.88
8617.27 -431.91 -429.102 5243 5275.68
8619.95 -426.835 -407.955 5418.07 5316.3
8622.63 -365.12 -415.754 5287.82 5371.75
8625.31 -455.307 -430.283 5409.37 5354.23
8627.98 -470.423 -454.985 5365.49 5421.44
8630.66 -439.226 -447.084 5489.47 5319.03
8633.34 -431.603 -430.358 5102.13 5271.07
8636.02 -420.244 -436.346 5221.6 5150.31
8638.7 -457.19 -431.921 5127.21 5181.52
8641.37 -418.33 -448.464 5195.76 5274.46
8644.05 -469.87 -432.584 5500.41 5293.37
8646.73 -409.55 -441.524 5183.93 5302.81
8649.4 -445.151 -419.226 5224.1 5215.1
8652.08 -402.977 -420.883 5237.27 5306.95
8654.75 -414.522 -409.191 5459.49 5323.46
8657.43 -410.073 -409.892 5273.61 5209.91
8660.1 -405.081 -388.322 4896.63 4841.27
8662.78 -349.812 -354.039 4353.55 4448.24
8665.45 -307.226 -334.267 4094.53 4224.53
8668.13 -345.763 -340.792 4225.5 4298.35
8670.8 -369.386 -379.266 4575.02 4546.45
8673.48 -422.648 -409.066 4838.83 4829.1
8676.15 -435.163 -428.81 5073.46 4941.1
8678.82 -428.62 -427.847 4911.02 4962.25
8681.5 -419.757 -417.474 4902.28 4936.17
8684.17 -404.047 -412.293 4995.21 4989.45
8686.84 -413.076 -412.663 5070.85 4989.81
8689.51 -420.867 -409.573 4903.39 4924.12
8692.19 -394.777 -416.259 4798.12 4943.17
8694.86 -433.135 -414.529 5128 4931.34
8697.53 -415.676 -420.976 4867.9 5051.23
8700.2 -414.118 -410.45 5157.78 5039.69
8702.87 -401.557 -405.774 5093.38 5138.3
8705.54 -401.648 -403.412 5163.74 5156.34
8708.21 -407.03 -416.226 5211.9 5159.45
8710.88 -440.001 -428.049 5102.72 5215.73
8713.55 -437.118 -428.345 5332.58 5082.51
8716.22 -407.918 -421.334 4812.22 4957.08
8718.89 -418.967 -417.88 4726.45 4862.64
8721.56 -426.755 -430.238 5049.24 4983.95
8724.23 -444.991 -431.517 5176.17 5166.07
8726.89 -422.806 -430.701 5272.8 5183.19
8729.56 -424.305 -417.607 5100.6 5057.22
8732.23 -405.711 -408.017 4798.26 4980.11
8734.9 -394.035 -401.483 5041.46 4948.52
8737.56 -404.703 -402.807 5005.84 4944.99
8740.23 -409.684 -406.975 4787.68 4897.82
8742.9 -406.539 -409.848 4899.94 4899.26
8745.56 -413.319 -397.85 5010.16 4917.75
8748.23 -373.691 -395.288 4843.16 4947.78
8750.9 -398.855 -387.589 4990.03 4920.27
8753.56 -390.221 -383.358 4927.62 4945.51
8756.23 -360.998 -373.815 4918.89 5166.71
8758.89 -370.227 -384.65 5653.63 5517.07
8761.56 -422.724 -380.893 5978.69 5992.96
8764.22 -349.729 -410.315 6346.55 6258.2
8766.88 -458.492 -395.085 6449.38 6168.88
8769.55 -377.033 -393.842 5710.73 5795.77
8772.21 -346 -378.238 5227.21 5256.46
8774.87 -411.681 -391.098 4831.44 5146.9
8777.54 -415.612 -414.878 5382.06 5085.55
8780.2 -417.34 -453.646 5043.15 5090.44
8782.86 -527.986 -459.774 4846.09 4503.46
8785.52 -433.995 -464.098 3621.14 4030.26
8788.19 -430.312 -420.9 3623.53 3680.94
8790.85 -398.391 -399.265 3798.15 3820.74
8793.51 -369.093 -389.885 4040.53 3919.06
8796.17 -402.171 -382.996 3918.51 3905.46
8798.83 -377.723 -387.704 3757.36 3866.25
8801.49 -383.218 -382.858 3922.89 3947.81
8804.15 -387.631 -374.292 4163.18 4070.46
8806.81 -352.028 -358.359 4125.3 4178.5
8809.47 -335.418 -343.986 4247.02 4255.03
8812.13 -344.513 -345.019 4392.78 4377.15
8814.79 -355.127 -356.371 4491.64 4545.9
8817.45 -369.472 -378.499 4753.27 4683.52
8820.1 -410.897 -374.572 4805.65 5163.97
8822.76 -343.347 -353.924 5932.97 5996.15
8825.42 -307.527 -336.747 7249.83 7097.07
8828.08 -359.369 -367.07 8108.41 7718.31
8830.73 -434.314 -390.605 7796.69 7339.81
8833.39 -378.134 -385.666 6114.32 6157.81
8836.05 -344.55 -373.755 4562.43 4847.58
8838.7 -398.583 -368.789 3865.98 3951.31
8841.36 -363.233 -368.38 3425.51 3317.09
8844.01 -343.325 -360.426 2659.77 2932.11
8846.67 -374.721 -354.993 2711.04 2715.62
8849.33 -346.934 -367.681 2776.05 2834.97
8851.98 -381.387 -378.906 3017.8 3155.06
8854.63 -408.398 -391.992 3671.32 3344.38
8857.29 -386.192 -385.457 3344 3535.37
8859.94 -361.781 -375.369 3590.77 3649.27
8862.6 -378.133 -352.762 4013.04 4010.42
8865.25 -318.372 -352.595 4427.44 4430.82
8867.9 -361.28 -343.912 4851.99 4659.38
8870.56 -352.085 -355.186 4698.72 4690.68
8873.21 -352.193 -366.398 4521.33 4448.72
8875.86 -394.918 -366.446 4126.11 4249.47
8878.51 -352.228 -364.222 4100.96 4229.65
8881.16 -345.52 -350.977 4461.87 4756.14
8883.81 -355.181 -376.135 5705.59 5593.12
8886.47 -427.702 -392.542 6611.91 6244.19
8889.12 -394.742 -398.842 6415.06 6037.77
8891.77 -374.083 -377.895 5086.35 5069.16
8894.42 -364.861 -376.543 3706.08 4007.35
8897.07 -390.685 -373.876 3229.63 3455.28
8899.72 -366.082 -372.017 3430.13 3610.31
8902.37 -359.284 -374.855 4171.18 4029.33
8905.01 -399.199 -366.356 4486.69 4244.39
8907.66 -340.586 -381.118 4075.31 4094.1
8910.31 -403.567 -388.454 3720.29 3744.65
8912.96 -421.209 -388.843 3438.35 3645.95
8915.61 -341.752 -362.377 3779.22 4169.12
8918.25 -324.172 -324.111 5289.78 5084.15
8920.9 -306.41 -320.722 6183.43 5804.96
8923.55 -331.584 -343.406 5941.65 5576.08
8926.2 -392.224 -364.819 4603.15 4584.2
8928.84 -370.649 -371.434 3207.79 3528.94
8931.49 -351.428 -345.486 2775.88 2881.05
8934.13 -314.382 -352.595 2659.49 2874.28
8936.78 -391.976 -356.959 3187.49 3053.58
8939.42 -364.518 -380.248 3313.76 3414.97
8942.07 -384.249 -362.191 3743.66 3667.98
8944.71 -337.807 -352.802 3946.53 3863.06
8947.36 -336.35 -336.324 3898.98 3784.67
8950 -334.816 -339.274 3508.5 3597.92
8952.64 -346.658 -343.585 3386.29 3693.36
8955.29 -349.282 -325.088 4185.3 4212.02
8957.93 -279.324 -331.828 5064.47 4984.77
8960.57 -366.877 -314.702 5704.55 5227.41
8963.22 -297.905 -337.187 4913.21 4709.1
8965.86 -346.779 -330.826 3509.53 3771.18
8968.5 -347.795 -335.239 2890.81 3008.98
8971.14 -311.141 -320.603 2626.6 2789.47
8973.78 -302.871 -314.277 2850.99 2738.95
8976.42 -328.82 -312.218 2739.26 2853.54
8979.06 -304.963 -315.985 2970.38 2913.34
8981.7 -314.174 -310.528 3030.37 3068.87
8984.34 -312.448 -299.959 3205.86 3228.52
8986.98 -273.255 -300.336 3449.34 3391.17
8989.62 -315.305 -283.262 3518.3 3426.13
8992.26 -261.228 -284.229 3310.76 3268.47
8994.9 -276.154 -275.264 2976.36 3068.19
8997.54 -288.411 -274.907 2917.44 3092.16
9000.18 -260.158 -281.105 3382.68 3420.8
9002.82 -294.747 -298.417 3962.28 3804.33
9005.45 -340.347 -308.439 4068.03 3873.46
9008.09 -290.224 -313.639 3590.08 3537.79
9010.73 -310.346 -284.715 2955.26 3111.24
9013.37 -253.574 -283.867 2788.38 2794.15
9016 -287.681 -269.337 2638.81 2707.64
9018.64 -266.755 -275.909 2695.74 2704.59
9021.27 -273.29 -272.785 2779.24 2782.51
9023.91 -278.311 -276.64 2872.55 2869.67
9026.54 -278.321 -281.179 2957.24 2931.43
9029.18 -286.906 -292.692 2964.51 3052.4
9031.81 -312.849 -289.895 3235.43 3154.66
9034.45 -269.929 -309.487 3264.04 3367.24
9037.08 -345.682 -301.608 3602.25 3538.77
9039.72 -289.214 -318.597 3750 3680.25
9042.35 -320.896 -317.369 3688.5 3595.06
9044.98 -341.996 -326.118 3346.67 3548.68
9047.61 -315.461 -329.411 3610.86 3585.48
9050.25 -330.776 -321.299 3798.91 3776.54
9052.88 -317.66 -320.395 3919.85 3778.65
9055.51 -312.748 -308.071 3617.18 3534.1
9058.14 -293.804 -313.992 3065.28 3252.48
9060.77 -335.423 -301.895 3074.98 3026.55
9063.41 -276.457 -303.196 2939.38 2990.01
9066.04 -297.708 -259.263 2955.67 2761.45
9068.67 -203.622 -215.265 2389.29 2318.17
9071.3 -144.465 -116.029 1609.54 1332.94
