wavelength spectrum_sum 3smoothed_sum
3508.76 1703.76 1411.42
3511.67 2530.51 2377.25
3514.58 2897.49 2859.85
3517.48 3151.55 3067.75
3520.39 3154.2 3145.08
3523.3 3129.5 3162.22
3526.21 3202.95 3178.57
3529.11 3203.25 3260.97
3532.02 3376.72 3293.5
3534.93 3300.52 3375.52
3537.84 3449.31 3402.33
3540.74 3457.15 3503.59
3543.65 3604.32 3599.73
3546.56 3737.71 3722.57
3549.47 3825.67 3801.42
3552.37 3840.89 3828.8
3555.28 3819.85 3832.08
3558.19 3835.51 3829.65
3561.09 3833.6 3888.19
3564 3995.45 3858.07
3566.91 3745.17 3845.26
3569.82 3795.16 3743.42
3572.73 3689.92 3785.25
3575.63 3870.67 3771.96
3578.54 3755.28 3858.22
3581.45 3948.71 3872.45
3584.36 3913.36 3904.88
3587.26 3852.57 3996.57
3590.17 4223.78 4036.36
3593.08 4032.73 4103.38
3595.99 4053.64 4119.16
3598.89 4271.13 4201.62
3601.8 4280.11 4266.02
3604.71 4246.81 4265.61
3607.62 4269.92 4308.16
3610.53 4407.76 4374.04
3613.43 4444.43 4505.93
3616.34 4665.59 4604.43
3619.25 4703.26 4742.32
3622.16 4858.11 4893.1
3625.06 5117.93 4931.55
3627.97 4818.62 4896.25
3630.88 4752.22 4903.1
3633.79 5138.47 5086.99
3636.7 5370.29 5274.42
3639.6 5314.51 5284.69
3642.51 5169.28 5386.48
3645.42 5675.66 5440.63
3648.33 5476.95 5652.1
3651.24 5803.68 5686.51
3654.14 5778.9 5783.66
3657.05 5768.4 5746.22
3659.96 5691.36 5765.04
3662.87 5835.36 5844.28
3665.78 6006.13 6004.48
3668.69 6171.95 6046.23
3671.59 5960.63 5974.15
3674.5 5789.86 5943.75
3677.41 6080.75 5931.33
3680.32 5923.38 6055.63
3683.23 6162.75 6070.85
3686.13 6126.41 6248.19
3689.04 6455.41 6375.04
3691.95 6543.31 6474.65
3694.86 6425.23 6500.98
3697.77 6534.4 6451.28
3700.68 6394.22 6522.31
3703.58 6638.32 6619.06
3706.49 6824.63 6850.54
3709.4 7088.66 7130.92
3712.31 7479.48 7349.45
3715.22 7480.22 7359.17
3718.13 7117.81 7437.43
3721.03 7714.27 7486.47
3723.94 7627.31 7697.2
3726.85 7750.03 7696.67
3729.76 7712.66 7650.23
3732.67 7488 7826.43
3735.58 8278.64 8208.04
3738.49 8857.49 8585.84
3741.39 8621.39 8581.89
3744.3 8266.78 8360.31
3747.21 8192.77 8420.43
3750.12 8801.73 8781.62
3753.03 9350.35 9194.84
3755.94 9432.45 9638.43
3758.84 10132.5 9755
3761.75 9700.05 9731.7
3764.66 9362.54 9457.37
3767.57 9309.51 9518.15
3770.48 9882.39 10005.7
3773.39 10825.2 10777.7
3776.3 11625.4 11608.9
3779.2 12376 12067.9
3782.11 12202.2 12350.2
3785.02 12472.4 12288.8
3787.93 12191.8 12079.4
3790.84 11574.2 11606.1
3793.75 11052.5 11298.4
3796.66 11268.5 11458.6
3799.56 12055 12117.3
3802.47 13028.5 13019.9
3805.38 13976.4 13821.9
3808.29 14460.7 14541.6
3811.2 15187.8 15171
3814.11 15864.6 15618.2
3817.02 15802.2 15769.3
3819.93 15641.1 15517.1
3822.83 15108.1 14995.9
3825.74 14238.5 13989
3828.65 12620.4 12985.4
3831.56 12097.2 12373.5
3834.47 12403 12516.2
3837.38 13048.3 13104.6
3840.29 13862.4 14051.9
3843.19 15244.9 15074
3846.1 16114.6 16119.9
3849.01 17000.2 16999.7
3851.92 17884.4 17961.8
3854.83 19000.8 18872.5
3857.74 19732.3 19578.6
3860.65 20002.7 19930.6
3863.56 20056.7 20129.4
3866.46 20328.7 20119.8
3869.37 19974 19969.5
3872.28 19605.9 19504
3875.19 18932 18724.1
3878.1 17634.4 17556.5
3881.01 16103 16194.2
3883.92 14845.1 15063.1
3886.83 14241.2 14654.6
3889.73 14877.4 14834.6
3892.64 15385.2 15611.5
3895.55 16572 16480.5
3898.46 17484.3 17393.3
3901.37 18123.7 18271.2
3904.28 19205.7 19256.8
3907.19 20441.1 20335.1
3910.1 21358.5 21304
3913 22112.4 22060.3
3915.91 22709.8 22810.1
3918.82 23607.9 23523.2
3921.73 24251.8 23991.2
3924.64 24113.9 23666.4
3927.55 22633.4 22273.2
3930.46 20072.2 21156.8
3933.36 20764.9 20736.4
3936.27 21371.9 21274.8
3939.18 21687.7 21673.2
3942.09 21960.1 21803.3
3945 21762 21708.9
3947.91 21404.6 21469.8
3950.82 21242.9 21235.1
3953.73 21057.8 21126
3956.63 21077.3 20558
3959.54 19538.9 19316.9
3962.45 17334.4 17489.2
3965.36 15594.3 16048.8
3968.27 15217.5 15604.2
3971.18 16000.7 16143
3974.09 17210.7 17245.5
3976.99 18525 18511.1
3979.9 19797.7 19740.7
3982.81 20899.3 20919.6
3985.72 22061.7 21833.8
3988.63 22540.4 22700.2
3991.54 23498.5 23530.4
3994.45 24552.4 24541.8
3997.36 25574.4 25330.2
4000.26 25863.9 26084
4003.17 26813.6 26611.3
4006.08 27156.3 27417.4
4008.99 28282.2 28112.1
4011.9 28897.9 28910.1
4014.81 29550.1 29417
4017.72 29803 29752.3
4020.62 29903.8 29993.6
4023.53 30273.9 30163.9
4026.44 30314 30234.4
4029.35 30115.4 30421.3
4032.26 30834.5 30578.1
4035.17 30784.3 30829.6
4038.08 30870.1 30591.4
4040.98 30119.8 30400.4
4043.89 30211.2 30352.5
4046.8 30726.4 30673
4049.71 31081.4 30794.7
4052.62 30576.2 30884.3
4055.53 30995.3 30830.3
4058.43 30919.4 30819.1
4061.34 30542.5 30718.2
4064.25 30692.7 30481.5
4067.16 30209.3 30057.7
4070.07 29271.1 29181.3
4072.98 28063.6 28398.7
4075.88 27861.4 27965.1
4078.79 27970.4 27889.9
4081.7 27838 27868.8
4084.61 27798 27730.7
4087.52 27556.1 27242
4090.43 26372 26252.5
4093.33 24829.4 24549.8
4096.24 22448 22757.4
4099.15 20994.7 21594.9
4102.06 21342.1 21581.7
4104.97 22408.4 22529.8
4107.88 23839 23842.7
4110.78 25280.7 25024.2
4113.69 25952.9 25903.4
4116.6 26476.4 26658.4
4119.51 27545.7 27356
4122.42 28045.7 28203.5
4125.33 29019 28859.4
4128.23 29513.6 29714.8
4131.14 30611.7 30697.5
4134.05 31967.3 31796.9
4136.96 32811.7 32790.7
4139.87 33593.2 33345.3
4142.77 33630.9 33761
4145.68 34058.8 33912.9
4148.59 34048.8 34107.2
4151.5 34213.9 34467.1
4154.41 35138.7 35002.4
4157.31 35654.5 35504.1
4160.22 35719.2 35851.3
4163.13 36180.2 36095.6
4166.04 36387.5 36308.2
4168.95 36356.8 36220.3
4171.85 35916.4 35959.8
4174.76 35606.3 35869.9
4177.67 36087.1 36112.3
4180.58 36643.4 36428.1
4183.48 36553.7 36666.8
4186.39 36803.5 36876.1
4189.3 37271.3 36832.3
4192.21 36422.3 36736.2
4195.12 36515.1 36537
4198.02 36673.7 36691
4200.93 36884.3 37087.4
4203.84 37704.3 37640
4206.75 38331.6 38316.1
4209.65 38912.6 38710.7
4212.56 38887.9 38998.6
4215.47 39195.2 39188.1
4218.38 39481 39323.6
4221.28 39294.6 39178.3
4224.19 38759.2 39240.2
4227.1 39666.8 39438
4230.01 39887.8 39740.6
4232.91 39667.1 39633.8
4235.82 39346.3 39576
4238.73 39714.5 39806.8
4241.64 40359.5 40109.2
4244.54 40253.6 40322
4247.45 40353 40498.6
4250.36 40889.2 40917.8
4253.27 41511.1 41426.5
4256.17 41879.3 41686.8
4259.08 41670 41966.7
4261.99 42350.7 42302.3
4264.9 42886.2 42396.4
4267.8 41952.3 42437.9
4270.71 42475.2 42375.9
4273.62 42700.1 42741.9
4276.52 43050.4 43082.7
4279.43 43497.6 43206.5
4282.34 43071.6 43200
4285.25 43030.8 42894.6
4288.15 42581.3 42829.3
4291.06 42875.8 42485.9
4293.97 42000.7 42053.2
4296.87 41283.1 41178.2
4299.78 40250.8 40666.6
4302.69 40466.1 40543.4
4305.59 40913.3 40700.1
4308.5 40720.8 40911.3
4311.41 41099.9 41211.3
4314.32 41813.1 41529.7
4317.22 41676.1 41505.5
4320.13 41027.2 40931.2
4323.04 40090.3 39972.6
4325.94 38800.3 38643.9
4328.85 37041 36831.1
4331.76 34651.9 34223.8
4334.66 30978.5 31621.4
4337.57 29233.8 29761
4340.48 29070.7 29606
4343.38 30513.5 30494.9
4346.29 31900.5 32112.4
4349.19 33923.4 33886.6
4352.1 35835.9 35638.1
4355.01 37154.9 37202.7
4357.91 38617.2 38686
4360.82 40285.8 40118.3
4363.73 41451.9 41453.6
4366.63 42623.2 42547.1
4369.54 43566 43750
4372.45 45060.6 44604
4375.35 45185.2 45365.1
4378.26 45849.3 45584.9
4381.16 45720.1 45798.1
4384.07 45825 45831.2
4386.98 45948.3 46036.8
4389.88 46337 46245.1
4392.79 46449.9 46337.4
4395.69 46225.3 46426
4398.6 46603 46796
4401.51 47559.9 47372.9
4404.41 47955.8 47911.4
4407.32 48218.4 48083.4
4410.22 48076 47965.4
4413.13 47601.8 47925.2
4416.04 48097.9 47878.8
4418.94 47936.7 48429.1
4421.85 49252.8 48578.9
4424.75 48547.1 48807.1
4427.66 48621.3 48762
4430.56 49117.6 48945.5
4433.47 49097.4 49303.4
4436.38 49695.2 49277.9
4439.28 49041.2 49096.3
4442.19 48552.7 48717
4445.09 48557.1 48538.8
4448 48506.6 48439
4450.9 48253.3 48243.6
4453.81 47970.8 48073.1
4456.71 47995.3 47835.4
4459.62 47540.2 47816.2
4462.52 47913.1 47575.5
4465.43 47273.2 47527.9
4468.33 47397.4 47858.9
4471.24 48905.9 48570.1
4474.14 49407 49218
4477.05 49341.2 49251.5
4479.95 49006.3 49297.7
4482.86 49545.7 49506.9
4485.76 49968.6 49854.4
4488.67 50048.9 50260
4491.57 50762.7 50627.1
4494.48 51069.8 51216.5
4497.38 51817 51750
4500.29 52363.3 52248.6
4503.19 52565.6 52676.8
4506.1 53101.5 52933.8
4509 53134.2 53096.8
4511.91 53054.8 52883.3
4514.81 52460.8 52450.3
4517.72 51835.2 51795.2
4520.62 51089.6 51001.5
4523.53 50079.7 50495.4
4526.43 50316.7 50487.8
4529.33 51067 51021.1
4532.24 51679.6 51518.9
4535.14 51810.1 51849.4
4538.05 52058.4 52007.2
4540.95 52153.3 52076
4543.86 52016.5 51894.3
4546.76 51513.2 51385.9
4549.66 50627.9 50685.7
4552.57 49915.9 50221.4
4555.47 50120.3 50395.6
4558.38 51150.7 51069.4
4561.28 51937.2 51988.8
4564.18 52878.5 52559.2
4567.09 52861.9 53082.2
4569.99 53506.2 53392.5
4572.9 53809.2 53537.7
4575.8 53297.7 53572.8
4578.7 53611.6 53479.1
4581.61 53528.1 53717.5
4584.51 54012.7 53859.9
4587.41 54039 54048.8
4590.32 54094.8 54035.8
4593.22 53973.7 54332.7
4596.12 54929.5 54716.3
4599.03 55245.6 54980.8
4601.93 54767.2 54990.2
4604.83 54957.7 55081.3
4607.74 55518.8 55422.9
4610.64 55792.2 55734
4613.54 55890.9 55734.2
4616.45 55519.5 55930.2
4619.35 56380.1 56164.6
4622.25 56594.2 56471.9
4625.16 56441.3 56578.6
4628.06 56700.2 56610.5
4630.96 56690.1 56561.4
4633.87 56294 56536.1
4636.77 56624.1 56537.1
4639.67 56693.1 56746.5
4642.57 56922.2 56576.3
4645.48 56113.6 56510.1
4648.38 56494.5 56402.3
4651.28 56598.7 56756.9
4654.18 57177.4 56993.1
4657.09 57203.2 57238.8
4659.99 57335.7 56863.2
4662.89 56050.6 56255.7
4665.79 55380.8 55822.3
4668.7 56035.4 55954.4
4671.6 56447.1 56453.9
4674.5 56879.1 56878.6
4677.4 57309.4 56959.7
4680.3 56690.5 57085.3
4683.21 57256.1 57134.2
4686.11 57456.1 57426.8
4689.01 57568.3 57618.7
4691.91 57831.6 57733.1
4694.81 57799.5 57756
4697.72 57636.9 57699.2
4700.62 57661.2 57281.2
4703.52 56545.3 57254.4
4706.42 57556.6 57019.5
4709.32 56956.5 57216.8
4712.22 57137.2 57196.1
4715.13 57494.6 57503.6
4718.03 57878.9 57830.5
4720.93 58118.1 58034.5
4723.83 58106.4 57860.1
4726.73 57355.8 57693.3
4729.63 57617.8 57551.7
4732.53 57681.6 57559.6
4735.44 57379.5 57505.1
4738.34 57454.2 57545.2
4741.24 57801.9 57721.1
4744.14 57907.3 57901.2
4747.04 57994.4 57978.6
4749.94 58034 57985.1
4752.84 57926.9 57865.4
4755.74 57635.1 57839.7
4758.64 57957.1 57779.4
4761.54 57746 57977.8
4764.44 58230.1 58140.1
4767.34 58444.1 58425.2
4770.25 58601.3 58624.3
4773.15 58827.6 58575.4
4776.05 58297.5 58583.8
4778.95 58626.3 58456.4
4781.85 58445.4 58364
4784.75 58020.5 58210.3
4787.65 58165.2 58288.4
4790.55 58679.7 58408.4
4793.45 58380.5 58549.2
4796.35 58587.6 58428.8
4799.25 58318.2 58385.3
4802.15 58250.1 58127.6
4805.05 57814.6 57805.4
4807.95 57351.5 57518.1
4810.85 57388.1 57385.7
4813.75 57417.6 57310.4
4816.65 57125.6 56956.5
4819.55 56326.4 56327.2
4822.45 55529.6 55809.3
4825.34 55571.7 55638.2
4828.24 55813.3 55479.8
4831.14 55054.3 55195.9
4834.04 54720.1 54579.9
4836.94 53965.3 54037.9
4839.84 53428.3 53068.9
4842.74 51813 51663.4
4845.64 49749 49757
4848.54 47709.1 47368.4
4851.44 44647.1 44422
4854.34 40909.8 40861.5
4857.24 37027.6 37964.5
4860.13 35956 36380.5
4863.03 36158.1 36685.6
4865.93 37942.7 38013.3
4868.83 39939 39970.6
4871.73 42030.1 41884.5
4874.63 43684.5 43846.6
4877.53 45825.3 45432.9
4880.42 46789 46876.2
4883.32 48014.3 48042.4
4886.22 49323.8 49285.5
4889.12 50518.6 50688.9
4892.02 52224.2 51939.4
4894.91 53075.4 53070.6
4897.81 53912.3 53685.2
4900.71 54067.8 54438.1
4903.61 55334.2 54953.6
4906.51 55458.9 55424.2
4909.4 55479.6 55661.6
4912.3 56046.4 55525.9
4915.2 55051.7 54994.5
4918.1 53885.3 54466
4920.99 54461 54395.9
4923.89 54841.3 55055.9
4926.79 55865.4 55495.8
4929.69 55780.6 55778
4932.58 55687.9 55692.2
4935.48 55607.9 55974.4
4938.38 56627.3 56476.9
4941.27 57195.6 57098.1
4944.17 57471.4 57635.1
4947.07 58238.2 58151.9
4949.97 58746.1 58314.7
4952.86 57959.8 58317.5
4955.76 58246.7 58307.9
4958.66 58717.2 58651
4961.55 58989.2 58945.4
4964.45 59129.9 59059.8
4967.35 59060.2 59232.9
4970.24 59508.5 59452.1
4973.14 59787.6 59449.1
4976.03 59051.2 58936.2
4978.93 57969.9 58021.6
4981.83 57043.7 57511.8
4984.72 57522 57499.1
4987.62 57931.5 57960.4
4990.51 58427.6 58264.9
4993.41 58435.4 58346.9
4996.31 58177.5 58208.9
4999.2 58013.7 57905.9
5002.1 57526.5 57662.5
5004.99 57447.3 57689.4
5007.89 58094.3 57749
5010.78 57705.3 57837
5013.68 57711.5 57755.7
5016.58 57850.4 57896.5
5019.47 58127.6 58332.3
5022.37 59019 58697.8
5025.26 58946.9 59110.4
5028.16 59365.2 59232
5031.05 59383.9 59352.8
5033.95 59309.2 59162.8
5036.84 58795.2 59040.1
5039.74 59015.9 59077.2
5042.63 59420.4 59370.8
5045.53 59676.1 59591.8
5048.42 59679 59723.5
5051.31 59815.4 60123.4
5054.21 60875.9 60637.7
5057.1 61221.9 61194.1
5060 61484.6 61190.2
5062.89 60864.1 61044.4
5065.79 60784.3 60592.7
5068.68 60129.6 60270.1
5071.57 59896.4 59675.8
5074.47 59001.3 59199.7
5077.36 58701.4 58790.1
5080.26 58667.6 58803.3
5083.15 59041 59146.3
5086.04 59730.3 59557.2
5088.94 59900.4 59802.8
5091.83 59777.8 59765
5094.72 59616.8 59538.8
5097.62 59221.7 59466.1
5100.51 59559.9 59549.7
5103.4 59867.6 59857.9
5106.3 60146.3 60142.6
5109.19 60413.9 60178.9
5112.08 59976.5 60168.2
5114.98 60114.3 60064
5117.87 60101.2 59849.4
5120.76 59332.8 59204.8
5123.65 58180.3 58674.3
5126.55 58509.8 58409.4
5129.44 58538.2 58531.1
5132.33 58545.4 58567.3
5135.22 58618.3 58595.1
5138.12 58621.6 58698.8
5141.01 58856.4 58873.4
5143.9 59142.1 59110.7
5146.79 59333.6 59451.6
5149.68 59879 59532.2
5152.58 59383.8 59654.3
5155.47 59700 59531.1
5158.36 59509.5 59409.1
5161.25 59017.9 58830
5164.14 57962.6 58046.9
5167.03 57160.3 57338.4
5169.93 56892.3 57417.7
5172.82 58200.6 57908.8
5175.71 58633.5 58418.4
5178.6 58421.2 58314.5
5181.49 57888.7 57891.1
5184.38 57363.6 57374
5187.27 56869.8 57049.7
5190.16 56915.7 56819
5193.06 56671.5 56607.5
5195.95 56235.2 54565.4
5198.84 50789.5 52495.2
5201.73 50460.9 50657.7
5204.62 50722.7 50870.9
5207.51 51429 51422.9
5210.4 52116.9 51995.7
5213.29 52441.3 52462.4
5216.18 52829.2 52770.2
5219.07 53040.2 52831.1
5221.96 52623.9 52507.6
5224.85 51858.6 52047
5227.74 51658.6 51583.8
5230.63 51234.2 51669.1
5233.52 52114.5 51854.4
5236.41 52214.5 52486.6
5239.3 53130.7 53065.3
5242.19 53850.7 53454.4
5245.08 53381.9 53500.2
5247.97 53268.1 53316.9
5250.86 53300.6 53207.1
5253.75 53052.5 53033.5
5256.63 52747.4 52851.5
5259.52 52754.7 52184.8
5262.41 51052.2 51501.6
5265.3 50697.9 50637.9
5268.19 50163.6 50189.4
5271.08 49706.6 50249.7
5273.97 50878.8 50473.5
5276.86 50835.2 50986.7
5279.74 51246.2 51334.9
5282.63 51923.3 51914.2
5285.52 52573.1 52391.7
5288.41 52678.7 52704.1
5291.3 52860.4 52696.7
5294.19 52550.9 52796
5297.07 52976.7 52901.9
5299.96 53178.1 53144.9
5302.85 53279.8 53421.7
5305.74 53807.3 53554
5308.62 53575 53506
5311.51 53135.7 53175
5314.4 52814.3 52884.4
5317.29 52703.2 52758.1
5320.17 52756.7 52424.9
5323.06 51814.9 52127.8
5325.95 51811.8 51742.9
5328.83 51602.1 51844.6
5331.72 52120 52014.1
5334.61 52320.2 52163.2
5337.5 52049.3 52219.3
5340.38 52288.3 52423.6
5343.27 52933.2 52890
5346.15 53448.3 53351.7
5349.04 53673.6 53663.8
5351.93 53869.4 53898.6
5354.81 54152.7 54035.9
5357.7 54085.5 53828.1
5360.59 53246.3 53404.1
5363.47 52880.6 52802.9
5366.36 52281.8 52431.1
5369.24 52130.8 52461.1
5372.13 52970.8 52774.3
5375.01 53221.4 53027.7
5377.9 52891 53026.6
5380.79 52967.4 53001.3
5383.67 53145.6 53315.7
5386.56 53834.1 53475.3
5389.44 53446.2 53623.2
5392.33 53589.2 53291.9
5395.21 52840.4 53000.9
5398.1 52573.1 52364.5
5400.98 51679.9 51918.7
5403.87 51503.2 51674
5406.75 51838.9 51705.6
5409.64 51774.8 52035.8
5412.52 52493.6 52415.6
5415.4 52978.3 52847.6
5418.29 53071 52987.4
5421.17 52912.7 52820.5
5424.06 52477.7 52707.7
5426.94 52732.8 52690.8
5429.82 52861.8 52997.8
5432.71 53398.9 53277.2
5435.59 53570.9 53795
5438.48 54415.4 53850.7
5441.36 53565.9 53839.4
5444.24 53537.1 53629.3
5447.13 53784.9 53700.1
5450.01 53778.4 53851.3
5452.89 53990.6 53642.4
5455.78 53158.2 53597.7
5458.66 53644.4 53500
5461.54 53697.3 53683.1
5464.42 53707.5 53752.5
5467.31 53852.6 53723.6
5470.19 53610.5 53279.2
5473.07 52374.4 52884.9
5475.95 52669.8 52627.1
5478.84 52837.2 52954
5481.72 53354.9 53360.5
5484.6 53889.5 53813.2
5487.48 54195.2 54147.3
5490.36 54357.4 54258.7
5493.25 54223.6 54182.1
5496.13 53965.5 53951.7
5499.01 53665.9 53845.5
5501.89 53904.9 53567.3
5504.77 53131 53477.4
5507.65 53396.2 53350.8
5510.54 53525.1 53656.2
5513.42 54047.4 54118.7
5516.3 54783.6 54537.5
5519.18 54781.6 54639.9
5522.06 54354.6 54460.6
5524.94 54245.6 54178.6
5527.82 53935.5 54080.3
5530.7 54059.8 53885.8
5533.58 53662 53924.9
5536.46 54053 53987
5539.34 54245.9 54064.1
5542.22 53893.3 53892.9
5545.1 53539.6 53902.3
5547.98 54274.1 54108.1
5550.86 54510.5 54420.1
5553.74 54475.8 54619.2
5556.62 54871.2 54438.1
5559.5 53967.4 54346
5562.38 54199.5 54066.3
5565.26 54032.2 54072.1
5568.14 53984.6 53980.7
5571.02 53925.4 54023.4
5573.9 54160.4 54248.8
5576.78 54660.7 54233.8
5579.66 53880.4 54153.5
5582.53 53919.4 53683.6
5585.41 53251 53536.1
5588.29 53438 53426.1
5591.17 53589.4 53670.2
5594.05 53983.3 53717.8
5596.93 53580.6 53696.8
5599.81 53526.5 53689.1
5602.68 53960.3 53912.9
5605.56 54251.9 54049.8
5608.44 53937.3 54091
5611.32 54083.8 53832.2
5614.19 53475.6 53686.3
5617.07 53499.4 53526.3
5619.95 53603.9 53663.4
5622.83 53886.9 53823
5625.7 53978.2 54046.1
5628.58 54273.2 53993
5631.46 53727.5 53897.3
5634.34 53691.2 53689.4
5637.21 53649.5 53792.5
5640.09 54036.8 53714.5
5642.97 53457.2 53800
5645.84 53906 53946.4
5648.72 54476.1 53940.2
5651.6 53438.6 53604
5654.47 52897.4 52918.5
5657.35 52419.5 52440.1
5660.22 52003.4 52257.6
5663.1 52350 52353.8
5665.98 52708 52704.5
5668.85 53055.6 53040.6
5671.73 53358.2 53290
5674.6 53456.1 53432.2
5677.48 53482.4 53259.3
5680.35 52839.5 52991.6
5683.23 52653.1 52652.8
5686.1 52465.9 52628.3
5688.98 52765.8 52773.8
5691.85 53089.7 52830.7
5694.73 52636.5 52728.6
5697.6 52459.5 52522.6
5700.48 52471.8 52355.7
5703.35 52135.9 52229.7
5706.23 52081.3 52061.3
5709.1 51966.6 52054.9
5711.97 52116.7 52062.4
5714.85 52104 52309
5717.72 52706.3 52568.9
5720.6 52896.3 52884.3
5723.47 53050.3 52952.6
5726.34 52911.1 52855.6
5729.22 52605.4 52817.9
5732.09 52937.3 52924.8
5734.96 53231.7 53146.2
5737.84 53269.6 53113
5740.71 52837.7 52880.1
5743.58 52533.1 52443.6
5746.46 51960.1 52230
5749.33 52196.7 51967.1
5752.2 51744.5 51968.8
5755.07 51965.2 51926.9
5757.95 52071.1 51999.5
5760.82 51962.3 51784.4
5763.69 51319.9 51798.4
5766.56 52113.1 51769.7
5769.43 51876.3 51949.4
5772.31 51858.9 51832.8
5775.18 51763.3 51848.1
5778.05 51921.9 51613.6
5780.92 51155.4 51593.8
5783.79 51704.1 51341.2
5786.66 51164.1 51391.7
5789.53 51306.8 51299.5
5792.41 51427.6 51571.3
5795.28 51979.5 51607.3
5798.15 51414.6 51640.2
5801.02 51526.6 51417
5803.89 51309.8 51445.3
5806.76 51499.6 51485.9
5809.63 51648.4 51580.4
5812.5 51593.3 51683.8
5815.37 51809.8 51663.4
5818.24 51587.1 51620.2
5821.11 51463.6 51705.2
5823.98 52065 51829.8
5826.85 51961 52000.1
5829.72 51974.4 52078.9
5832.59 52301.4 52071.6
5835.46 51939.1 51994.6
5838.33 51743.3 51878.8
5841.2 51954.1 51943.5
5844.06 52133 51901.8
5846.93 51618.4 51697.6
5849.8 51341.4 51188.7
5852.67 50606.2 50964.4
5855.54 50945.7 50828.6
5858.41 50933.8 50837.8
5861.28 50633.8 51122.6
5864.14 51800.2 51439.4
5867.01 51884.2 51791.8
5869.88 51690.9 51859.4
5872.75 52003.1 51805.4
5875.62 51722.1 51660.4
5878.48 51256.1 51359.9
5881.35 51101.4 50983.7
5884.22 50593.6 50377.2
5887.09 49436.7 49785.7
5889.95 49326.9 49464.6
5892.82 49630.3 49506.6
5895.69 49562.6 49885.7
5898.55 50464.3 50037.6
5901.42 50085.9 50374.2
5904.29 50572.3 50571.6
5907.15 51056.6 50570.6
5910.02 50082.9 50722.8
5912.89 51028.9 50702.1
5915.75 50994.6 50858
5918.62 50550.4 50906.3
5921.48 51173.7 50833.7
5924.35 50777 50805.8
5927.22 50466.6 50609.1
5930.08 50583.6 50605.4
5932.95 50766 50536.2
5935.81 50259.1 50588.4
5938.68 50740.3 50475.5
5941.54 50427.3 50384
5944.41 49984.6 50164.4
5947.27 50081.3 50246.1
5950.14 50672.3 50393.4
5953 50426.7 50584.3
5955.87 50653.7 50420.9
5958.73 50182.4 50370
5961.59 50274 50264.6
5964.46 50337.3 50327
5967.32 50369.7 50429.5
5970.19 50581.3 50168.9
5973.05 49555.7 49956
5975.91 49731 49584.6
5978.78 49467.1 49559
5981.64 49478.8 49386.6
5984.5 49213.9 49341.5
5987.37 49331.8 49299
5990.23 49351.1 49470.2
5993.09 49727.6 49477
5995.95 49352.4 49685.5
5998.82 49976.5 49629.5
6001.68 49559.6 49527.7
6004.54 49047 49255.3
6007.4 49159.4 49141.7
6010.27 49218.6 49161.2
6013.13 49105.6 49004.1
6015.99 48688.2 48733
6018.85 48405.1 48499
6021.71 48403.7 48458.2
6024.58 48565.7 48633.1
6027.44 48929.9 48625.7
6030.3 48381.5 48672.7
6033.16 48706.9 48642.2
6036.02 48838.3 48868.3
6038.88 49059.7 48843.7
6041.74 48633 48727.2
6044.6 48488.8 48729
6047.46 49065.1 48779.3
6050.32 48783.9 48827.4
6053.18 48633.3 48677.1
6056.04 48614.1 48662.6
6058.9 48740.3 48540.4
6061.76 48266.6 48554.6
6064.62 48656.9 48411.5
6067.48 48311 48674.5
6070.34 49055.7 48693.7
6073.2 48714.5 48666.5
6076.06 48229.2 48398.4
6078.92 48251.6 48301.8
6081.78 48424.6 48309.9
6084.64 48253.4 48285.7
6087.5 48179.1 48261.4
6090.35 48351.6 48238.2
6093.21 48184 48102.7
6096.07 47772.6 47970.6
6098.93 47955.2 47765.5
6101.79 47568.8 47714
6104.65 47617.9 47712.5
6107.5 47950.9 47769.1
6110.36 47738.5 47864.6
6113.22 47904.4 47769.2
6116.08 47664.9 47813.4
6118.93 47870.9 47620.2
6121.79 47324.8 47470.8
6124.65 47216.8 47383.3
6127.5 47608.4 47121
6130.36 46537.9 46814.9
6133.22 46298.3 46118.7
6136.07 45520 45624.7
6138.93 45055.7 45505.8
6141.79 45941.7 45572.1
6144.64 45718.9 45855.1
6147.5 45904.6 45981.2
6150.36 46320 46119.7
6153.21 46134.5 46256.8
6156.07 46315.9 46310.8
6158.92 46481.9 46419.3
6161.78 46460.2 46415.4
6164.63 46304.1 46350.2
6167.49 46286.2 46294.9
6170.34 46294.3 46160.6
6173.2 45901.3 46050.7
6176.05 45956.5 45918.4
6178.91 45897.4 46031.4
6181.76 46240.3 46003.1
6184.62 45871.5 46062.1
6187.47 46074.6 45892.9
6190.32 45732.6 45994.7
6193.18 46176.8 46098.4
6196.03 46385.9 46272.3
6198.89 46254.4 46255.4
6201.74 46126 46253.6
6204.59 46380.3 46115.1
6207.45 45838.9 46128.8
6210.3 46167.2 45952.4
6213.15 45851 45904.6
6216 45695.7 45783.3
6218.86 45803.3 45692.3
6221.71 45577.9 45543.5
6224.56 45249.2 45198.4
6227.41 44768.1 43507.8
6230.27 40506.2 41844.3
6233.12 40258.7 40405.3
6235.97 40451 40348.4
6238.82 40335.5 40355
6241.67 40278.4 40206.8
6244.52 40006.6 40052.6
6247.38 39872.8 39960.5
6250.23 40002.1 39947.3
6253.08 39967 40039.3
6255.93 40148.7 40102.7
6258.78 40192.3 40245.3
6261.63 40394.9 40282.4
6264.48 40260.1 40241.4
6267.33 40069.2 40250.6
6270.18 40422.5 40128.6
6273.03 39894 39929.4
6275.88 39471.8 39783
6278.73 39983.1 39709
6281.58 39672.1 39711.2
6284.43 39478.4 39613.7
6287.28 39690.7 39580
6290.13 39570.8 39622.3
6292.98 39605.5 39514.3
6295.83 39366.5 39551.1
6298.68 39681.4 39473.3
6301.53 39371.9 39495.6
6304.37 39433.4 39485.5
6307.22 39651.2 39543.4
6310.07 39545.5 39501.4
6312.92 39307.6 39188.6
6315.77 38712.8 39187.2
6318.62 39541.4 39331.8
6321.46 39741.1 39698.9
6324.31 39814.3 39671.9
6327.16 39460.3 39544.5
6330.01 39358.9 39394.8
6332.85 39365.3 39413.7
6335.7 39516.9 39318.3
6338.55 39072.8 39219.3
6341.39 39068.3 39002.4
6344.24 38866 39074.8
6347.09 39290.1 39235.7
6349.93 39551 39337.6
6352.78 39171.8 39308
6355.62 39201.3 39188.4
6358.47 39192 39129.3
6361.32 38994.5 39147.2
6364.16 39255.2 38994.9
6367.01 38735.1 38897.2
6369.85 38701.3 38764.5
6372.7 38857 38770
6375.54 38751.7 38917.2
6378.39 39142.8 38864.8
6381.23 38699.8 38867.2
6384.08 38758.9 38733
6386.92 38740.3 38695.4
6389.77 38587.1 38597.8
6392.61 38466 38523.8
6395.45 38518.4 38477.9
6398.3 38449.2 38592.1
6401.14 38808.7 38500.5
6403.99 38243.5 38526.3
6406.83 38526.7 38212.6
6409.67 37867.6 38169.9
6412.52 38115.3 37988.8
6415.36 37983.3 38043.6
6418.2 38032.1 38090
6421.04 38254.7 38125.6
6423.89 38089.9 38060
6426.73 37835.3 37966.7
6429.57 37974.9 37905.2
6432.41 37905.4 38046.1
6435.26 38258 37994.2
6438.1 37819.2 37954
6440.94 37784.8 37948.6
6443.78 38241.8 38127.2
6446.62 38355.1 38101
6449.46 37706.1 37869.4
6452.31 37546.8 37604.6
6455.15 37560.9 37450.3
6457.99 37243.2 37431.3
6460.83 37489.8 37556
6463.67 37935 37709.9
6466.51 37704.8 37725.2
6469.35 37535.8 37722.6
6472.19 37927 37808.3
6475.03 37962.1 37826.3
6477.87 37589.8 37675.4
6480.71 37474.3 37506.4
6483.55 37455.2 37367
6486.39 37171.6 37065.6
6489.23 36570.1 36511.5
6492.07 35792.9 35870.9
6494.91 35249.8 35817.1
6497.74 36408.7 36069.8
6500.58 36550.8 36567.8
6503.42 36744 36710.2
6506.26 36835.8 36741.4
6509.1 36644.5 36698.6
6511.94 36615.4 36600.6
6514.77 36541.9 36545.8
6517.61 36480.2 36394.7
6520.45 36161.9 36316.4
6523.29 36307.1 36158.1
6526.12 36005.2 36093
6528.96 35966.9 35862.4
6531.8 35615 35560.4
6534.64 35099.3 35233.1
6537.47 34984.8 34818
6540.31 34369.9 34353.3
6543.14 33705.3 33657.3
6545.98 32896.7 32832.1
6548.82 31894.3 31871.2
6551.65 30822.6 30335.2
6554.49 28288.7 28255.3
6557.32 25654.7 25846.6
6560.16 23596.5 24610.4
6563 24580.1 24730.8
6565.83 26015.6 26207.5
6568.67 28026.9 27960.7
6571.5 29839.5 29582.6
6574.34 30881.3 31089
6577.17 32546.1 32217.2
6580 33224.2 33200.9
6582.84 33832.2 33888
6585.67 34607.5 34451.4
6588.51 34914.5 34793.2
6591.34 34857.6 34838.9
6594.17 34744.5 34947.9
6597.01 35241.6 35224
6599.84 35685.8 35562.6
6602.67 35760.4 35802.1
6605.51 35960.1 35739.2
6608.34 35497.1 35733.9
6611.17 35744.5 35724.6
6614.01 35932.1 35897.7
6616.84 36016.4 36102.3
6619.67 36358.3 36206.7
6622.5 36245.5 36325.6
6625.33 36372.9 36240.5
6628.17 36102.9 35996.1
6631 35512.5 35898.7
6633.83 36080.5 35973.7
6636.66 36328.2 36213.1
6639.49 36230.6 36196.3
6642.32 36030.1 36046.7
6645.15 35879.2 35943.6
6647.98 35921.4 35991.1
6650.81 36172.8 36148.9
6653.64 36352.4 36298.5
6656.48 36370.3 36411
6659.31 36510.4 36407.8
6662.14 36342.7 36268
6664.96 35950.9 36044
6667.79 35838.3 35880
6670.62 35850.8 35825.7
6673.45 35787.9 35823.1
6676.28 35830.5 35733.4
6679.11 35581.9 35821.2
6681.94 36051.2 35880.9
6684.77 36009.5 35998.8
6687.6 35935.7 35969.1
6690.43 35962.2 35950.7
6693.25 35954.2 35932.7
6696.08 35881.9 35984.8
6698.91 36118.4 35837.9
6701.74 35513.3 35727.9
6704.56 35552.1 35612.1
6707.39 35770.9 35800.3
6710.22 36078 35882.4
6713.05 35798.5 35812.1
6715.87 35560 35619.4
6718.7 35499.7 35593.8
6721.53 35721.6 35581
6724.35 35521.7 35623.6
6727.18 35627.5 35620.4
6730.01 35712.1 35721.8
6732.83 35825.9 35733.3
6735.66 35661.8 35574.9
6738.48 35237 35526.8
6741.31 35681.6 35456.9
6744.13 35452.1 35475.7
6746.96 35293.4 35472.3
6749.78 35671.3 35497.4
6752.61 35527.6 35542.7
6755.43 35429.2 35285.8
6758.26 34900.6 35233.2
6761.08 35369.9 35196.9
6763.91 35320.2 35296.7
6766.73 35199.9 35225.1
6769.55 35155.1 35151.5
6772.38 35099.4 35291.6
6775.2 35620.4 35351.6
6778.02 35334.9 35423.1
6780.85 35313.8 35280.9
6783.67 35194.1 35165.4
6786.49 34988.3 35008.1
6789.32 34841.9 34950.9
6792.14 35022.5 34906
6794.96 34853.7 34925.5
6797.78 34900.3 34916.7
6800.61 34996.1 35042.4
6803.43 35230.9 35006.1
6806.25 34791.4 34972.4
6809.07 34894.9 34825.4
6811.89 34789.7 34787.9
6814.71 34678.9 34757.4
6817.53 34803.4 34687.9
6820.36 34581.3 34773.7
6823.18 34936.3 34619.2
6826 34340.1 34561.1
6828.82 34406.7 34309.3
6831.64 34181.2 34236.4
6834.46 34121.3 34068.1
6837.28 33901.8 34002.6
6840.1 33984.7 33947.2
6842.92 33955.1 34080.3
6845.74 34301.1 34101
6848.56 34046.7 34185.8
6851.37 34209.5 33998
6854.19 33737.9 33898
6857.01 33746.7 33415.3
6859.83 32761.3 32476
6862.65 30920.1 30673
6865.47 28337.7 28710.6
6868.29 26873.9 27455.6
6871.1 27155.2 27400.6
6873.92 28172.8 28235.3
6876.74 29378 29232.2
6879.56 30145.9 29804.3
6882.37 29889 29995.1
6885.19 29950.3 29824.4
6888.01 29633.8 29716.4
6890.82 29565.1 29655.6
6893.64 29767.8 29821
6896.46 30130.2 30014.4
6899.27 30145.3 30305.8
6902.09 30642.1 30508.7
6904.9 30738.7 30721.3
6907.72 30783.1 30941.2
6910.54 31301.9 31100.2
6913.35 31215.7 31311.6
6916.17 31417.3 31531.7
6918.98 31962.1 31769.4
6921.8 31928.7 31928.4
6924.61 31894.4 31923.3
6927.43 31946.8 31995.1
6930.24 32143.9 32064.4
6933.05 32102.5 32201.3
6935.87 32357.5 32162.5
6938.68 32027.5 32043.1
6941.5 31744.2 31857.9
6944.31 31801.8 31826.6
6947.12 31933.9 31772.6
6949.94 31582.1 31788.2
6952.75 31848.7 31759.5
6955.56 31847.8 31938.5
6958.37 32119 31908.7
6961.19 31759.2 31995.7
6964 32108.7 31971.7
6966.81 32047.2 31946.8
6969.62 31684.4 31744.3
6972.43 31501.3 31618.7
6975.25 31670.5 31564.1
6978.06 31520.6 31498.8
6980.87 31305.2 31337.3
6983.68 31186.2 31212.1
6986.49 31145 31159.8
6989.3 31148.2 31162.2
6992.11 31193.5 31104.6
6994.92 30972 31085.1
6997.73 31089.6 30995.1
7000.54 30923.7 30960.7
7003.35 30868.6 30837.4
7006.16 30719.8 30723.6
7008.97 30582.5 30722.6
7011.78 30865.6 30601.1
7014.59 30355 30546.8
7017.4 30419.8 30369.4
7020.21 30333.5 30354.4
7023.02 30309.9 30329.4
7025.83 30344.7 30341.9
7028.63 30371 30386
7031.44 30442.2 30293.3
7034.25 30066.8 30220.4
7037.06 30152.3 30188.6
7039.87 30346.7 30285.5
7042.67 30357.5 30300.3
7045.48 30196.6 30227
7048.29 30126.9 30137.3
7051.09 30088.3 30051.2
7053.9 29938.5 29978.4
7056.71 29908.4 29944.8
7059.51 29987.5 29942.1
7062.32 29930.4 29861.2
7065.13 29665.8 29821.8
7067.93 29869.3 29837
7070.74 29976 29868.4
7073.54 29759.9 29802.1
7076.35 29670.6 29589.9
7079.15 29339.2 29639.1
7081.96 29907.6 29582.8
7084.76 29501.5 29578.5
7087.57 29326.4 29425.5
7090.37 29448.5 29409.3
7093.18 29453.1 29343.3
7095.98 29128.4 29278.1
7098.78 29252.9 29292.3
7101.59 29495.8 29257
7104.39 29022.3 29245.8
7107.19 29219.4 29024.7
7110 28832.3 28911.3
7112.8 28682.1 28750.1
7115.6 28736 28721.8
7118.41 28747.2 28680.7
7121.21 28558.8 28614.9
7124.01 28538.7 28549.4
7126.81 28550.6 28632.1
7129.61 28807.1 28648.8
7132.42 28588.8 28646
7135.22 28542.2 28558
7138.02 28543 28495
7140.82 28399.6 28419.9
7143.62 28317.1 28354.5
7146.42 28346.8 28215.2
7149.22 27981.7 27167
7152.02 25172.4 26153.4
7154.82 25306 25158.3
7157.62 24996.6 25011.6
7160.42 24732.2 24786.5
7163.22 24630.8 24567.8
7166.02 24340.4 24373.4
7168.82 24148.9 24221.6
7171.62 24175.5 24104.4
7174.42 23988.7 23984
7177.22 23787.7 23851.6
7180.02 23778.3 23696.1
7182.82 23522.4 23609.3
7185.61 23527.3 23455.8
7188.41 23317.6 23382.4
7191.21 23302.4 23342.6
7194.01 23407.7 23463.5
7196.81 23680.4 23484.4
7199.6 23364.9 23472.8
7202.4 23373.2 23504
7205.2 23773.9 23558
7207.99 23527 23780
7210.79 24039.1 23758
7213.59 23707.9 23859.1
7216.38 23830.3 23747.5
7219.18 23704.5 23663.6
7221.98 23456.2 23629.6
7224.77 23728 23441.5
7227.57 23140.3 23382.6
7230.36 23279.6 23134
7233.16 22982 23169.3
7235.95 23246.2 23155.4
7238.75 23237.8 23136.1
7241.54 22924.1 23067.6
7244.34 23040.9 23004.7
7247.13 23049.2 22970.6
7249.92 22821.9 22929.7
7252.72 22918.2 22906.2
7255.51 22978.6 22961.2
7258.3 22986.8 22934.9
7261.1 22839.4 22839.1
7263.89 22691 22761.5
7266.68 22754 22752.8
7269.48 22813.5 22687.9
7272.27 22496.2 22629.2
7275.06 22578 22605.3
7277.85 22741.6 22640.2
7280.65 22601 22551.7
7283.44 22312.3 22384.7
7286.23 22240.7 22292.2
7289.02 22323.5 22222.5
7291.81 22103.2 22336
7294.6 22581.3 22325.3
7297.39 22291.3 22494
7300.18 22609.4 22393.2
7302.97 22278.8 22416.6
7305.77 22361.5 22332.6
7308.56 22357.3 22390.1
7311.35 22451.4 22389
7314.13 22358.2 22450.4
7316.92 22541.7 22476.2
7319.71 22528.7 22513.3
7322.5 22469.5 22498.2
7325.29 22496.3 22450.7
7328.08 22386.3 22418.7
7330.87 22373.5 22361.8
7333.66 22325.8 22455.1
7336.45 22665.9 22529.5
7339.23 22596.7 22591.3
7342.02 22511.2 22560.9
7344.81 22574.7 22548
7347.6 22558 22404.7
7350.38 22081.5 22209.6
7353.17 21989.4 22103.9
7355.96 22240.9 22083.8
7358.74 22021 22097.9
7361.53 22031.7 22066.4
7364.32 22146.5 22116.2
7367.1 22170.4 22134.1
7369.89 22085.5 22083.3
7372.67 21993.9 22074.5
7375.46 22144 22042
7378.25 21988.3 21986.6
7381.03 21827.7 21735.2
7383.82 21389.7 21600.2
7386.6 21583.2 21518
7389.39 21581 21583.6
7392.17 21586.7 21556.7
7394.95 21502.4 21527.2
7397.74 21492.5 21474.4
7400.52 21428.2 21413.6
7403.31 21320 21345.1
7406.09 21287.2 21284.6
7408.87 21246.5 21267.4
7411.65 21268.6 21208.9
7414.44 21111.5 21141.7
7417.22 21044.9 21045.2
7420 20979.1 21098.7
7422.78 21272.2 21130.5
7425.57 21140.1 21192.4
7428.35 21164.8 21218.2
7431.13 21349.6 21176.7
7433.91 21015.7 21169.1
7436.69 21142 21052.3
7439.47 20999.3 21026.5
7442.26 20938.3 20991
7445.04 21035.4 20928.6
7447.82 20812.2 20945.1
7450.6 20987.8 20923.6
7453.38 20970.9 21006.9
7456.16 21062.1 20900.1
7458.94 20667.2 20822.5
7461.72 20738.3 20755.6
7464.5 20861.3 20828.5
7467.27 20885.9 20937.9
7470.05 21066.3 20962.4
7472.83 20935 21040.5
7475.61 21120.1 20961
7478.39 20827.8 20896
7481.17 20740.1 20747
7483.94 20673.2 20636.1
7486.72 20494.9 20567.6
7489.5 20534.7 20396
7492.28 20158.3 20315.8
7495.05 20254.4 20257
7497.83 20358.3 20356.3
7500.61 20456.1 20418.1
7503.38 20439.9 20384.5
7506.16 20257.5 20247
7508.94 20043.6 20156
7511.71 20166.9 20190.2
7514.49 20360 20255.4
7517.26 20239.4 20247.4
7520.04 20142.8 20158.2
7522.82 20092.5 20080.6
7525.59 20006.7 20103.5
7528.37 20211.3 20053.6
7531.14 19942.7 20053
7533.91 20005 19915.6
7536.69 19799.1 19978.9
7539.46 20132.6 19955
7542.24 19933.5 20015
7545.01 19979 19954.8
7547.78 19951.8 19965.3
7550.56 19965.2 19892.4
7553.33 19760.2 19900.8
7556.1 19976.9 19922
7558.87 20028.9 20007.9
7561.65 20017.9 19969.2
7564.42 19860.9 19858
7567.19 19695.3 19699.3
7569.96 19541.8 19542.8
7572.73 19391.4 19477.1
7575.51 19498.1 19448.2
7578.28 19455 19391.4
7581.05 19221.3 19161.3
7583.82 18807.8 18666.9
7586.59 17971.8 17603.3
7589.36 16030.3 15657.8
7592.13 12971.2 13035.9
7594.9 10106.1 10477.1
7597.67 8354.05 8435.48
7600.44 6846.29 7237.23
7603.21 6511.35 6766.63
7605.98 6942.24 7217.58
7608.75 8199.14 8434.52
7611.52 10162.2 10310.6
7614.28 12570.5 11873.8
7617.05 12888.7 12598.4
7619.82 12335.9 12194.3
7622.59 11358.3 11564.7
7625.36 10999.9 11023.8
7628.12 10713.1 10909.1
7630.89 11014.1 11052.9
7633.66 11431.4 11316.6
7636.42 11504.4 11699.6
7639.19 12163.2 12109.8
7641.96 12662 12685.1
7644.72 13230 13204.8
7647.49 13722.5 13662.3
7650.26 14034.4 14106.3
7653.02 14562.2 14490.6
7655.79 14875.2 14905.4
7658.55 15278.8 15180.7
7661.32 15388.2 15411.1
7664.08 15566.3 15672.1
7666.85 16061.9 16030.7
7669.61 16464 16432.5
7672.38 16771.6 16677.9
7675.14 16798.1 16834.3
7677.9 16933.2 16999.3
7680.67 17266.5 17249.4
7683.43 17548.6 17454
7686.19 17546.9 17514.2
7688.96 17447.1 17446.3
7691.72 17344.9 17429.9
7694.48 17497.8 17499
7697.25 17654.2 17569.9
7700.01 17557.7 17615.5
7702.77 17634.7 17560.7
7705.53 17489.8 17482.8
7708.29 17323.9 17322.8
7711.05 17154.8 17220.2
7713.82 17182 17240.3
7716.58 17384.1 17409
7719.34 17660.9 17488.1
7722.1 17419.3 17582.8
7724.86 17668.1 17524.2
7727.62 17485.2 17592.5
7730.38 17624.3 17539.8
7733.14 17510 17480.3
7735.9 17306.7 17340.7
7738.66 17205.4 17211.3
7741.42 17121.9 17162.4
7744.17 17159.9 17019
7746.93 16775.3 17062.3
7749.69 17251.6 16980.1
7752.45 16913.3 17000
7755.21 16835.1 16784.8
7757.97 16606 16685.1
7760.72 16614.2 16604.4
7763.48 16593 16607.5
7766.24 16615.3 16393.6
7768.99 15972.4 16085.5
7771.75 15668.9 15740.9
7774.51 15581.4 15657.9
7777.26 15723.4 15667.4
7780.02 15697.4 15794.1
7782.78 15961.5 15915.2
7785.53 16086.7 16002.9
7788.29 15960.5 16119.8
7791.04 16312.2 16157.9
7793.8 16201 16217.9
7796.55 16140.3 16268
7799.31 16462.6 16328.4
7802.06 16382.1 16353.7
7804.82 16216.3 16254.8
7807.57 16165.9 16226.6
7810.32 16297.5 16266.7
7813.08 16336.7 16313.6
7815.83 16306.5 16341
7818.58 16380 16228
7821.34 15997.5 16190.6
7824.09 16194.3 16026.8
7826.84 15888.7 16018.3
7829.59 15971.9 15935.7
7832.35 15946.5 15983.7
7835.1 16032.8 15960.2
7837.85 15901.4 15984.9
7840.6 16020.6 15983.6
7843.35 16028.7 16000.2
7846.1 15951.4 15931.6
7848.86 15814.9 15774.8
7851.61 15558.1 15641.6
7854.36 15551.8 15548.7
7857.11 15536.2 15483.1
7859.86 15361.4 15407.2
7862.61 15323.9 15380.1
7865.36 15455 15445.6
7868.11 15557.9 15546.2
7870.85 15625.7 15544
7873.6 15448.4 15459.8
7876.35 15305.4 15313.2
7879.1 15185.7 15216.4
7881.85 15158 15126.9
7884.6 15037.1 15233.8
7887.34 15506.5 15208.3
7890.09 15081.5 15188.4
7892.84 14977.2 14949.2
7895.59 14788.8 14938.1
7898.33 15048.4 14890.9
7901.08 14835.6 14944.1
7903.83 14948.3 14836.2
7906.57 14724.7 14806.6
7909.32 14746.6 14776.5
7912.07 14858.1 14776.1
7914.81 14723.5 14625.5
7917.56 14294.9 14496.8
7920.3 14472.1 14357.5
7923.05 14305.6 14287.7
7925.79 14085.3 14181.8
7928.54 14154.6 14015.4
7931.28 13806.4 13871.2
7934.02 13652.5 13744.8
7936.77 13775.4 13725.7
7939.51 13749.2 13795
7942.26 13860.5 13880.4
7945 14031.6 14009
7947.74 14134.8 14018.9
7950.49 13890.4 14086.5
7953.23 14234.4 14102.1
7955.97 14181.5 14070.1
7958.71 13794.2 14024
7961.45 14096.1 13949.9
7964.2 13959.4 13968.4
7966.94 13849.5 13960.3
7969.68 14072 14033.8
7972.42 14180 14076.9
7975.16 13978.8 14099.3
7977.9 14139.2 14039.9
7980.64 14001.9 13985.3
7983.38 13814.7 13919.6
7986.12 13942.2 13840.5
7988.86 13764.5 13818.4
7991.6 13748.6 13729.4
7994.34 13675.1 13703.2
7997.08 13685.9 13702.9
7999.82 13747.8 13659.6
8002.56 13545 13735.2
8005.3 13912.7 13749.7
8008.03 13791.2 13797.1
8010.77 13687.4 13730.7
8013.51 13713.4 13125.6
8016.25 11976.1 12658.3
8018.99 12285.6 12184
8021.72 12290.4 12235.8
8024.46 12131.5 12088.5
8027.2 11843.5 12022.4
8029.93 12092.2 12020.7
8032.67 12126.6 12121.5
8035.41 12145.8 12103.8
8038.14 12039.1 12061
8040.88 11997.9 12011.6
8043.61 11997.7 11964.5
8046.35 11897.9 11953
8049.08 11963.3 11901.4
8051.82 11843.1 11834
8054.55 11695.8 11737.9
8057.29 11674.8 11742.9
8060.02 11858.1 11779.8
8062.75 11806.4 11817.2
8065.49 11787.2 11773.7
8068.22 11727.5 11748.1
8070.95 11729.7 11634.4
8073.69 11446 11552.4
8076.42 11481.5 11471.4
8079.15 11486.7 11521.2
8081.88 11595.5 11444.1
8084.62 11250.1 11468.6
8087.35 11560.2 11397.7
8090.08 11382.8 11414.5
8092.81 11300.6 11319.9
8095.54 11276.2 11338.4
8098.27 11438.4 11326.5
8101 11265 11340
8103.73 11316.5 11260.8
8106.46 11200.9 11319.5
8109.19 11441.1 11257
8111.92 11129 11227.2
8114.65 11111.5 11059.8
8117.38 10938.9 11046.2
8120.11 11088.2 11015.6
8122.84 11019.6 11015.7
8125.57 10939.4 10991.6
8128.3 11015.8 10895.7
8131.03 10731.9 10852.1
8133.75 10808.6 10763.7
8136.48 10750.6 10871.2
8139.21 11054.6 10838.8
8141.94 10711.3 10718.3
8144.66 10388.9 10461.8
8147.39 10285.2 10394.3
8150.12 10508.8 10348.6
8152.84 10251.8 10366.9
8155.57 10340.1 10259.1
8158.3 10185.4 10222.8
8161.02 10142.9 10160
8163.75 10151.6 10114.2
8166.47 10048 10156.6
8169.2 10270 10172.4
8171.92 10199 10170.6
8174.65 10042.8 10081.9
8177.37 10003.8 9965.04
8180.09 9848.53 9927.22
8182.82 9929.3 9945.1
8185.54 10057.5 9965.74
8188.27 9910.43 9925.38
8190.99 9808.23 9768.5
8193.71 9586.85 9619.45
8196.43 9463.28 9537.38
8199.16 9562.01 9600.44
8201.88 9776.03 9771.31
8204.6 9975.9 9919.61
8207.32 10006.9 9991.17
8210.05 9990.7 9985.97
8212.77 9960.32 9942.43
8215.49 9876.28 9878.74
8218.21 9799.63 9781.49
8220.93 9668.57 9677.22
8223.65 9563.45 9523.82
8226.37 9339.45 9408.22
8229.09 9321.75 9494.73
8231.81 9822.98 9620.01
8234.53 9715.31 9800.82
8237.25 9864.17 9857.78
8239.97 9993.85 9915.56
8242.69 9888.67 10003.6
8245.41 10128.2 9990.88
8248.12 9955.73 9930.23
8250.84 9706.72 9830.54
8253.56 9829.17 9760.14
8256.28 9744.53 9803.69
8258.99 9837.36 9884.22
8261.71 10070.8 9937.17
8264.43 9903.38 10016.2
8267.15 10074.5 9963.66
8269.86 9913.11 9920.62
8272.58 9774.24 9823.99
8275.29 9784.62 9785.05
8278.01 9796.29 9777.34
8280.73 9751.12 9782.01
8283.44 9798.61 9712.32
8286.16 9587.23 9650.64
8288.87 9566.09 9648.78
8291.59 9793.01 9682.45
8294.3 9688.24 9772.44
8297.01 9836.07 9757.48
8299.73 9748.15 9728.51
8302.44 9601.31 9663.71
8305.16 9641.68 9709.95
8307.87 9886.88 9727.28
8310.58 9653.29 9782.49
8313.3 9807.3 9786.68
8316.01 9899.45 9787.44
8318.72 9655.55 9747.4
8321.43 9687.2 9643.82
8324.14 9588.69 9612.95
8326.86 9562.95 9576.38
8329.57 9577.5 9568.99
8332.28 9566.53 9547.11
8334.99 9497.3 9504.93
8337.7 9450.96 9468.6
8340.41 9457.56 9508.72
8343.12 9617.64 9513.66
8345.83 9465.78 9556.54
8348.54 9586.2 9572.27
8351.25 9664.84 9659.69
8353.96 9728.05 9669.91
8356.67 9616.84 9666.23
8359.38 9653.8 9647.07
8362.09 9670.58 9705.81
8364.79 9793.07 9689.22
8367.5 9604.02 9647.18
8370.21 9544.45 9587.26
8372.92 9613.31 9583.82
8375.62 9593.71 9600.03
8378.33 9593.05 9585.81
8381.04 9570.67 9617.6
8383.75 9689.09 9553.04
8386.45 9399.36 9509.15
8389.16 9439.01 9460.84
8391.86 9544.16 9483.82
8394.57 9468.3 9532.98
8397.28 9586.48 9478.19
8399.98 9379.79 9491.91
8402.69 9509.46 9516.28
8405.39 9659.58 9585.66
8408.1 9587.94 9616.6
8410.8 9602.27 9586.29
8413.5 9568.64 9619.73
8416.21 9688.29 9615.62
8418.91 9589.93 9681.26
8421.61 9765.54 9633.02
8424.32 9543.6 9621.65
8427.02 9555.81 9544.64
8429.72 9534.51 9511.39
8432.43 9443.87 9452.85
8435.13 9380.16 9441.91
8437.83 9501.71 9407.58
8440.53 9340.87 9374.97
8443.23 9282.34 9286.49
8445.93 9236.25 9262.45
8448.63 9268.76 9284.24
8451.34 9347.7 9357.84
8454.04 9457.06 9411.08
8456.74 9428.48 9477.49
8459.44 9546.92 9499.72
8462.14 9523.77 9422.56
8464.84 9196.99 9309.62
8467.53 9208.11 9214.64
8470.23 9238.83 9238.55
8472.93 9268.72 9294.03
8475.63 9374.55 9378.48
8478.33 9492.17 9473.17
8481.03 9552.8 9538.16
8483.73 9569.52 9552.72
8486.42 9535.85 9532.86
8489.12 9493.21 9443.31
8491.82 9300.87 9341.69
8494.51 9230.99 9140.03
8497.21 8888.24 8949.21
8499.91 8728.39 8831.5
8502.6 8877.88 8861.25
8505.3 8977.49 9026.63
8508 9224.52 9203.34
8510.69 9407.99 9344.14
8513.39 9399.91 9373.69
8516.08 9313.16 9369.53
8518.78 9395.51 9399.29
8521.47 9489.2 9461.24
8524.16 9499.02 9509.95
8526.86 9541.64 9563.45
8529.55 9649.68 9519.58
8532.25 9367.43 9460.99
8534.94 9365.86 9278.32
8537.63 9101.68 9031.03
8540.32 8625.56 8691.02
8543.02 8345.83 8497.61
8545.71 8521.45 8567.89
8548.4 8836.38 8816.13
8551.09 9090.57 9058.54
8553.78 9248.66 9158
8556.48 9134.77 9278.51
8559.17 9452.12 9369.31
8561.86 9521.05 9537.95
8564.55 9640.68 9622.99
8567.24 9707.24 9667.12
8569.93 9653.45 9624.8
8572.62 9513.71 9540.43
8575.31 9454.14 9484.18
8578 9484.68 9548.53
8580.69 9706.76 9538.19
8583.38 9423.11 9502.34
8586.06 9377.16 9380.57
8588.75 9341.44 9276.1
8591.44 9109.71 9163.25
8594.13 9038.6 8973.93
8596.82 8773.48 8839.36
8599.5 8706.01 8748.8
8602.19 8766.92 8807.88
8604.88 8950.7 8920.08
8607.56 9042.63 9067.04
8610.25 9207.79 9159.54
8612.94 9228.22 9299.29
8615.62 9461.88 9368.15
8618.31 9414.35 9476.49
8620.99 9553.24 9512.82
8623.68 9570.86 9564.76
8626.36 9570.18 9670.29
8629.05 9869.84 9681.45
8631.73 9604.32 9756.67
8634.42 9795.84 9704.37
8637.1 9712.94 9733
8639.78 9690.22 9642.46
8642.47 9524.23 9549.63
8645.15 9434.44 9498.42
8647.83 9536.57 9379.95
8650.52 9168.82 9323.4
8653.2 9264.81 9149.06
8655.88 9013.54 9101.87
8658.56 9027.25 8758.67
8661.25 8235.23 8409.91
8663.93 7967.24 7995.31
8666.61 7783.46 7933
8669.29 8048.3 8093.67
8671.97 8449.25 8364.91
8674.65 8597.19 8532.88
8677.33 8552.2 8621.8
8680.01 8716.02 8742.42
8682.69 8959.05 8943.35
8685.37 9154.98 9134.2
8688.05 9288.55 9235.63
8690.73 9263.36 9248.86
8693.41 9194.66 9288.73
8696.08 9408.18 9338.03
8698.76 9411.24 9430.16
8701.44 9471.05 9539.91
8704.12 9737.45 9622.17
8706.8 9658 9676.07
8709.47 9632.74 9571.26
8712.15 9423.03 9509.52
8714.83 9472.8 9443.11
8717.5 9433.49 9452.17
8720.18 9450.2 9511.41
8722.86 9650.55 9543.29
8725.53 9529.12 9588.33
8728.21 9585.32 9528.23
8730.88 9470.24 9450.79
8733.56 9296.81 9364.44
8736.23 9326.27 9215.24
8738.91 9022.64 9043.9
8741.58 8782.79 8828.81
8744.25 8680.98 8664.81
8746.93 8530.67 8432.59
8749.6 8086.11 8174.84
8752.27 7907.75 7971.66
8754.95 7921.13 8007.86
8757.62 8194.7 8189.19
8760.29 8451.75 8432.28
8762.97 8650.39 8642.76
8765.64 8826.14 8867.92
8768.31 9127.25 9059.15
8770.98 9224.07 9212.36
8773.65 9285.76 9181.55
8776.32 9034.82 9253.37
8778.99 9439.53 9300.95
8781.66 9428.49 9424.3
8784.33 9404.88 9548.69
8787 9812.7 9519.67
8789.67 9341.45 9457.32
8792.34 9217.8 9333.98
8795.01 9442.7 9350.86
8797.68 9392.08 9425.3
8800.35 9441.12 9470.53
8803.02 9578.38 9476.78
8805.69 9410.83 9435.31
8808.35 9316.71 9320.85
8811.02 9235.02 9347.94
8813.69 9492.07 9362.81
8816.36 9361.33 9335.62
8819.02 9153.46 9227.03
8821.69 9166.31 9184.69
8824.36 9234.29 9197.03
8827.02 9190.5 9196.77
8829.69 9165.51 9220.25
8832.35 9304.74 9197.92
8835.02 9123.51 9132.4
8837.68 8968.95 8983.6
8840.35 8858.36 8870.3
8843.01 8783.59 8842.86
8845.68 8886.62 8856.84
8848.34 8900.32 8869.26
8851.01 8820.85 8507.72
8853.67 7802 8023.48
8856.33 7447.6 7474.7
8859 7174.51 7086.64
8861.66 6637.81 6797.52
8864.32 6580.24 6550.33
8866.98 6432.95 6565.9
8869.64 6684.51 6742.46
8872.31 7109.91 7031.17
8874.97 7299.08 7374.16
8877.63 7713.49 7567
8880.29 7688.42 7734.81
8882.95 7802.52 7720.3
8885.61 7669.97 7775.14
8888.27 7852.92 7821.35
8890.93 7941.16 7917.24
8893.59 7957.64 8000.32
8896.25 8102.15 8092.81
8898.91 8218.65 8164.5
8901.57 8172.68 8128.42
8904.23 7993.92 8077.96
8906.89 8067.29 8030.65
8909.54 8030.75 8066.81
8912.2 8102.39 8092.32
8914.86 8143.8 8147.45
8917.52 8196.15 8157.59
8920.17 8132.83 8146.04
8922.83 8109.15 8067.27
8925.49 7959.83 7967.98
8928.14 7834.97 7896.5
8930.8 7894.72 7850.81
8933.46 7822.75 7913.73
8936.11 8023.73 7977.14
8938.77 8084.94 8032.53
8941.42 7988.93 8034.95
8944.08 8030.96 7948.48
8946.73 7825.53 7876.73
8949.39 7773.69 7777.44
8952.04 7733.09 7762.64
8954.69 7781.13 7787.34
8957.35 7847.8 7836.47
8960 7880.49 7830.8
8962.65 7764.1 7692.52
8965.31 7432.98 7575.47
8967.96 7529.33 7467.66
8970.61 7440.67 7457.23
8973.26 7401.7 7397.06
8975.91 7348.81 7396.49
8978.56 7438.96 7394.01
8981.22 7394.26 7418.17
8983.87 7421.29 7357.9
8986.52 7258.15 7258.65
8989.17 7096.51 7087.46
8991.82 6907.71 6925.18
8994.47 6771.3 6862.09
8997.12 6907.25 6870.02
8999.77 6931.5 6858.87
9002.42 6737.84 6725.79
9005.06 6508.04 6562.47
9007.71 6441.53 6444.27
9010.36 6383.24 6315.46
9013.01 6121.62 6072.83
9015.66 5713.63 5762.89
9018.3 5453.43 5541.08
9020.95 5456.17 5579.91
9023.6 5830.13 5772.04
9026.25 6029.8 6039.9
9028.89 6259.75 6261.64
9031.54 6495.36 6536.4
9034.18 6854.07 6756.01
9036.83 6918.58 6926.66
9039.47 7007.32 6968.58
9042.12 6979.86 7006.11
9044.76 7031.14 7017.09
9047.41 7040.28 7025.02
9050.05 7003.62 7109.3
9052.7 7284.01 7109.05
9055.34 7039.52 7137.49
9057.99 7088.95 7072.36
9060.63 7088.6 7019.04
9063.27 6879.57 6822.74
9065.91 6500.06 6657.9
9068.56 6594.07 6156.94
9071.2 5376.69 5339.79
9073.84 4048.6 3141.76
