wavelength spectrum_sum 3smoothed_sum spectrum_optimal 3smoothed_optimal
3403.33 24.4338 15.6078 -931.268 -490.485
3406.25 22.3896 -9.66292 -540.187 -599.906
3409.17 -75.8121 -11.0473 -328.261 -120.41
3412.09 20.2806 2.0171 507.217 103.384
3415.01 61.5828 23.433 131.196 193.745
3417.93 -11.5644 6.95758 -57.1781 45.6662
3420.85 -29.1457 6.35153 62.9805 -66.6536
3423.77 59.7646 -9.95767 -205.763 -53.1134
3426.69 -60.492 -10.823 -16.5573 -35.7396
3429.61 -31.7416 -18.9376 115.102 39.0739
3432.53 35.4209 14.9899 18.6771 -133.304
3435.45 41.2904 2.86569 -533.692 -230.018
3438.37 -68.1141 0.937176 -175.038 -209.406
3441.28 29.6353 13.3075 80.5126 -276.133
3444.2 78.4013 29.6646 -733.873 -327.738
3447.12 -19.0426 25.526 -329.853 -224.323
3450.04 17.2193 -3.24861 390.757 92.7345
3452.96 -7.9225 31.3866 217.3 312.124
3455.88 84.8631 28.8583 328.315 133.581
3458.8 9.6343 25.6147 -144.873 141.638
3461.72 -17.6534 -13.1691 241.473 64.1021
3464.64 -31.4881 -16.5949 95.7062 119.45
3467.56 -0.643096 -21.0995 21.1696 258
3470.48 -31.1673 -3.38738 657.125 359.802
3473.4 21.6482 -10.5673 401.112 447.288
3476.32 -22.1829 -34.3785 283.628 359.086
3479.24 -102.601 -46.6665 392.518 208.786
3482.16 -15.2158 -36.3191 -49.7879 273.93
3485.08 8.85922 -4.37724 479.06 331.779
3488 -6.77516 -11.9131 566.065 346.573
3490.92 -37.8232 -26.7848 -5.40724 418.575
3493.84 -35.756 -51.0578 695.068 362.23
3496.76 -79.5943 -54.252 397.029 489.368
3499.68 -47.4059 -57.4044 376.007 536.076
3502.6 -45.2131 -35.5228 835.193 441.494
3505.52 -13.9494 -22.7937 113.281 409.867
3508.44 -9.21864 -19.1214 281.128 463.033
3511.36 -34.1963 -19.8001 994.691 705.907
3514.28 -15.9854 5.42782 841.902 601.683
3517.2 66.4651 35.7185 -31.5423 289.209
3520.12 56.6759 65.0521 57.2688 -1.13066
3523.03 72.0152 55.6041 -29.1186 123.904
3525.95 38.1211 37.4636 343.563 237.381
3528.87 2.25437 33.4828 397.698 641.063
3531.79 60.073 35.3593 1181.93 961.715
3534.71 43.7504 76.2468 1305.52 912.86
3537.63 124.917 86.5931 251.131 954.218
3540.55 91.1118 75.0359 1306 1092.32
3543.47 9.07897 40.9213 1719.84 1385.7
3546.39 22.5732 2.3064 1131.27 1323.16
3549.31 -24.733 -17.2668 1118.36 1338.39
3552.23 -49.6406 -49.9165 1765.53 1510.97
3555.15 -75.3759 -67.0218 1649.03 1279.83
3558.07 -76.0489 -54.1694 424.925 785.759
3560.99 -11.0835 -49.0202 283.324 433.068
3563.91 -59.9283 -44.9438 590.955 546.561
3566.83 -63.8197 -43.1583 765.402 330.273
3569.75 -5.72697 -21.8046 -365.54 -198.405
3572.67 4.13302 2.21522 -995.076 -480.519
3575.58 8.23962 19.0096 -80.9397 -420.28
3578.5 44.6561 9.84428 -184.824 -277.713
3581.42 -23.3629 4.07438 -567.374 -471.236
3584.34 -9.07008 -6.52554 -661.509 -665.663
3587.26 12.8564 -17.392 -768.108 -755.953
3590.18 -55.9623 -7.68546 -838.242 -729.231
3593.1 20.0495 -4.00948 -581.344 -412.181
3596.02 23.8843 13.9226 183.042 -66.8578
3598.94 -2.16605 15.474 197.728 314.813
3601.86 24.7036 -7.24149 563.669 154.066
3604.78 -44.262 -6.25672 -299.2 -39.6117
3607.7 0.788283 1.96318 -383.304 -327.051
3610.62 49.3633 26.6028 -298.649 -521.649
3613.54 29.6568 13.782 -882.992 -736.869
3616.45 -37.6741 10.4884 -1028.97 -915.954
3619.37 39.4825 -17.3567 -835.902 -694.384
3622.29 -53.8784 -3.64366 -218.284 -522.488
3625.21 3.46495 -30.0615 -513.277 -445.504
3628.13 -39.771 -10.2016 -604.951 -319.178
3631.05 5.70132 29.9298 160.692 -13.5596
3633.97 123.859 68.1378 403.58 -186.325
3636.89 74.8532 73.9212 -1123.25 -758.373
3639.81 23.0514 32.0282 -1555.45 -1236.72
3642.73 -1.81991 19.9501 -1031.45 -1311.12
3645.65 38.6187 -16.238 -1346.47 -1245.85
3648.56 -85.5128 11.9505 -1359.64 -1225.52
3651.48 82.7457 -18.7839 -970.441 -1090.8
3654.4 -53.5847 -17.6939 -942.326 -1025.65
3657.32 -82.2428 -0.413326 -1164.2 -1279.2
3660.24 134.588 21.3461 -1731.07 -1581.63
3663.16 11.6936 82.3229 -1849.62 -1606.08
3666.08 100.687 33.1771 -1237.56 -1535.74
3669 -12.8498 24.4028 -1520.03 -1427.88
3671.92 -14.6292 -10.845 -1526.05 -1206.77
3674.84 -5.05591 6.29489 -574.212 -924.693
3677.75 38.5697 11.776 -673.817 -706.16
3680.67 1.81403 46.6494 -870.451 -657.866
3683.59 99.5644 53.9635 -429.33 -222.275
3686.51 60.5122 50.4005 632.956 434.777
3689.43 -8.87522 33.8358 1100.71 786.364
3692.35 49.8703 56.4684 625.432 468.353
3695.27 128.41 45.9148 -321.079 -194.73
3698.19 -40.536 37.2727 -888.542 -966.779
3701.11 23.9441 23.7662 -1690.72 -1322.87
3704.02 87.8903 36.8986 -1389.36 -1244.58
3706.94 -1.1385 68.0115 -653.671 -588.796
3709.86 117.283 85.5672 276.638 13.3503
3712.78 140.557 90.7455 417.083 224.13
3715.7 14.3963 91.1089 -21.3303 189.931
3718.62 118.373 58.5858 174.039 -19.4817
3721.54 42.9881 87.474 -211.154 -329.782
3724.45 101.061 22.9011 -952.231 -757.34
3727.37 -75.3458 43.9637 -1108.63 -805.336
3730.29 106.176 30.0887 -355.144 -712.745
3733.21 59.436 109.827 -674.458 -705.795
3736.13 163.869 133.435 -1087.78 -1040.57
3739.05 177 167.995 -1359.46 -1396.9
3741.97 163.116 143.269 -1743.46 -1586.67
3744.88 89.6924 130.973 -1657.07 -1683.35
3747.8 140.11 137.65 -1649.53 -1235.02
3750.72 183.149 150.997 -398.464 -583.415
3753.64 129.731 127.759 297.746 -109.665
3756.56 70.3976 115.277 -228.275 -304.199
3759.48 145.702 95.395 -982.067 -813.892
3762.4 70.0858 83.7091 -1231.33 -960.962
3765.31 35.3397 15.5389 -669.484 -373.524
3768.23 -58.8088 24.9712 780.246 558.808
3771.15 98.3828 24.7677 1565.66 1372.57
3774.07 34.7292 68.9441 1771.81 1726.51
3776.99 73.7204 43.2396 1842.06 1910.29
3779.91 21.2693 35.2043 2117.01 2005.11
3782.82 10.6231 3.67825 2056.26 2177.46
3785.74 -20.8577 20.1637 2359.11 2238.59
3788.66 70.7258 27.7733 2300.4 2091.38
3791.58 33.4518 50.7327 1614.65 1647.87
3794.5 48.0206 49.8999 1028.57 1164.77
3797.41 68.2274 77.0069 851.082 993.663
3800.33 114.773 56.1107 1101.34 1044.75
3803.25 -14.6682 68.9154 1181.84 1144.62
3806.17 106.642 37.7449 1150.68 1167.25
3809.09 21.2614 68.7901 1169.24 853.664
3812 78.4673 94.2063 241.074 233.043
3814.92 182.89 111.592 -711.186 -564.945
3817.84 73.4188 114.61 -1224.73 -934.692
3820.76 87.5224 62.7723 -868.166 -909.5
3823.68 27.3755 67.6687 -635.61 -701.784
3826.59 88.1081 52.7514 -601.575 -813.799
3829.51 42.7706 73.4039 -1204.21 -1289.89
3832.43 89.3329 65.5792 -2063.9 -1949.88
3835.35 64.6341 43.7013 -2581.53 -2263.25
3838.27 -22.8632 32.4214 -2144.32 -2018.92
3841.18 55.4932 1.40453 -1330.91 -1298.75
3844.1 -28.4165 2.72915 -421.015 -483.286
3847.02 -18.8893 7.00194 302.061 102.849
3849.94 68.3116 13.0727 427.5 320.789
3852.85 -10.2041 16.5301 232.808 270.41
3855.77 -8.51716 -3.35482 150.922 260.368
3858.69 8.6568 7.45418 397.375 301.482
3861.61 22.2229 7.0752 356.149 297.524
3864.52 -9.65408 -0.0734273 139.048 190.025
3867.44 -12.7891 10.4285 74.8795 79.096
3870.36 53.7286 -3.54703 23.3606 49.846
3873.28 -51.5806 -23.8871 51.298 131.024
3876.19 -73.8094 -24.0005 318.415 272.014
3879.11 53.3885 -11.789 446.329 338.292
3882.03 -14.9462 -5.72009 250.132 237.111
3884.95 -55.6026 -16.424 14.8722 198.414
3887.86 21.2768 -37.0285 330.239 488.528
3890.78 -76.7598 -29.4182 1120.47 1019.77
3893.7 -32.7717 -52.3507 1608.59 1434.21
3896.62 -47.5205 -3.88251 1573.57 1358.61
3899.53 68.6447 -4.97335 893.659 1171.71
3902.45 -36.0442 24.2983 1047.89 1009.91
3905.37 40.2943 -28.4105 1088.17 1279.24
3908.29 -89.4815 -15.124 1701.66 1502.49
3911.2 3.81504 -49.9754 1717.63 1830.07
3914.12 -64.2599 -26.1773 2070.92 1930.03
3917.04 -18.087 -25.7514 2001.53 1800.28
3919.95 5.09251 -9.2802 1328.39 1264.33
3922.87 -14.8462 25.2251 463.061 339.131
3925.79 85.429 64.9251 -774.055 -764.152
3928.71 124.193 65.2246 -1981.46 -1855.1
3931.62 -13.9478 42.6224 -2809.78 -2718.74
3934.54 17.6226 2.34011 -3364.97 -3123.44
3937.46 3.34554 28.5351 -3195.57 -3264.97
3940.37 64.6371 5.22583 -3234.37 -2987.63
3943.29 -52.3051 28.9181 -2532.95 -2454.62
3946.21 74.4223 -3.32219 -1596.53 -1717.62
3949.12 -32.0837 18.3489 -1023.38 -1202.18
3952.04 12.7082 28.1626 -986.633 -1061.74
3954.96 103.863 67.2656 -1175.2 -1370.22
3957.87 85.2254 73.0294 -1948.82 -2263.32
3960.79 29.9996 69.2787 -3665.95 -3553.77
3963.71 92.611 73.1655 -5046.56 -4752.32
3966.62 96.8858 59.5824 -5544.44 -5249.01
3969.54 -10.7497 77.1499 -5156.04 -4909.65
3972.46 145.314 103.226 -4028.46 -3857.95
3975.37 175.115 144.25 -2389.36 -2494.25
3978.29 112.322 120.941 -1064.93 -1398.39
3981.21 75.3851 113.504 -740.894 -835.304
3984.12 152.804 93.5087 -700.09 -658.313
3987.04 52.3367 88.4028 -533.955 -670.131
3989.96 60.0673 86.7527 -776.348 -825.906
3992.87 147.854 93.9041 -1167.41 -1009.57
3995.79 73.791 116.426 -1084.94 -1361.84
3998.7 127.632 141.696 -1833.17 -1970.74
4001.62 223.666 164.634 -2994.11 -2967.44
4004.54 142.604 158.82 -4075.04 -3824.33
4007.45 110.189 143.921 -4403.84 -4644.37
4010.37 178.97 146.341 -5454.21 -5316.35
4013.29 149.864 118.33 -6090.99 -5822.25
4016.2 26.1566 102.948 -5921.55 -6009.46
4019.12 132.825 98.706 -6015.85 -5934.66
4022.03 137.136 149.67 -5866.58 -5726.97
4024.95 179.049 132.616 -5298.49 -5355.71
4027.87 81.6638 111.197 -4902.06 -4994.61
4030.78 72.8797 132.869 -4783.3 -4652.4
4033.7 244.063 158.795 -4271.83 -4290.07
4036.61 159.444 143.432 -3815.08 -3944.89
4039.53 26.7902 140.292 -3747.75 -3766.59
4042.44 234.642 142.445 -3736.93 -3707.5
4045.36 165.903 160.049 -3637.81 -3723.31
4048.28 79.6017 105.125 -3795.19 -3746.34
4051.19 69.871 68.4044 -3806.02 -3764.46
4054.11 55.7407 154.236 -3692.18 -3775.98
4057.02 337.097 148.784 -3829.73 -3845.82
4059.94 53.5146 150.207 -4015.54 -3964.85
4062.85 60.0078 67.1926 -4049.26 -3964.79
4065.77 88.0555 140.804 -3829.55 -3653.8
4068.69 274.35 176.359 -3082.58 -3168.07
4071.6 166.672 200.192 -2592.07 -2699.25
4074.52 159.555 187.133 -2423.11 -2387.95
4077.43 235.173 152.18 -2148.69 -2000.8
4080.35 61.8131 164.519 -1430.62 -1634.41
4083.26 196.571 93.5666 -1323.93 -1275.52
4086.18 22.3158 63.2651 -1072.02 -1100.85
4089.09 -29.0913 -18.7017 -906.609 -1106.46
4092.01 -49.3297 33.9938 -1340.74 -1371.39
4094.92 180.403 71.2412 -1866.82 -1755.29
4097.84 82.6507 115.971 -2058.32 -1903.94
4100.75 84.8587 66.4834 -1786.69 -1922.15
4103.67 31.9408 75.2679 -1921.45 -1724
4106.58 109.004 79.8941 -1463.85 -1425.85
4109.5 98.7373 114.588 -892.245 -1030.73
4112.41 136.023 97.0793 -736.103 -723.415
4115.33 56.4772 100.466 -541.898 -524.341
4118.24 108.899 102.211 -295.021 -440.294
4121.16 141.256 161.445 -483.962 -488.312
4124.07 234.18 224.903 -685.954 -574.957
4126.99 299.272 259.996 -554.957 -507.086
4129.9 246.535 207.009 -280.346 -254.032
4132.82 75.2201 183.162 73.2078 198.284
4135.73 227.73 169.761 801.991 684.171
4138.65 206.332 182.831 1177.31 1129.81
4141.56 114.431 224.274 1410.14 1563.93
4144.48 352.058 199.482 2104.33 2027.38
4147.39 131.957 257.896 2567.68 2519.95
4150.3 289.673 186.307 2887.85 2742.52
4153.22 137.292 170.661 2772.04 2991.23
4156.13 85.0187 112.474 3313.81 3084.67
4159.05 115.11 127.54 3168.16 3236.95
4161.96 182.492 198.208 3228.87 3012.7
4164.88 297.023 262.11 2641.08 2947.71
4167.79 306.816 253.181 2973.18 2594.48
4170.7 155.705 216.255 2169.18 2326.41
4173.62 186.246 170.59 1836.86 1560.19
4176.53 169.819 159.462 674.516 740.859
4179.45 122.323 163.929 -288.803 -294.56
4182.36 199.647 136.353 -1269.39 -1249.61
4185.27 87.0897 164.045 -2190.63 -2241.83
4188.19 205.4 184.383 -3265.48 -3071.7
4191.1 260.66 231.075 -3758.99 -4070.52
4194.02 227.166 228.402 -5187.08 -5234.76
4196.93 197.381 172.556 -6758.21 -6603.88
4199.84 93.12 185.112 -7866.36 -7353.59
4202.76 264.836 210.395 -7436.19 -7203.25
4205.67 273.228 250.959 -6307.21 -6167.23
4208.58 214.813 280.271 -4758.29 -4656.17
4211.5 352.772 252.34 -2903.03 -2570.34
4214.41 189.435 237.181 -49.6964 -92.8828
4217.33 169.334 200.349 2674.08 2696.93
4220.24 242.278 197.183 5466.41 5345.73
4223.15 179.936 205.086 7896.69 7722.78
4226.07 193.044 194.377 9805.23 9669.22
4228.98 210.15 254.164 11305.7 10749.9
4231.89 359.299 294.547 11138.7 10806.9
4234.81 314.193 322.614 9976.18 9758.22
4237.72 294.349 242.661 8159.82 8370.69
4240.63 119.441 236.924 6976.07 6823.78
4243.54 296.981 197.863 5335.45 5103.29
4246.46 177.167 187.499 2998.34 3067.19
4249.37 88.3504 133.532 867.786 1112.85
4252.28 135.079 143.37 -527.56 -172.298
4255.2 206.682 147.279 -857.12 -739.643
4258.11 100.077 155.076 -834.248 -754.923
4261.02 158.468 180.761 -573.4 -774.891
4263.94 283.737 213.065 -917.025 -795.441
4266.85 196.989 250.405 -895.898 -879.577
4269.76 270.487 188.646 -825.806 -751.925
4272.67 98.461 222.916 -534.072 -453.209
4275.59 299.8 181.866 0.250643 -151.011
4278.5 147.337 226.148 80.7876 15.8881
4281.41 231.307 187.256 -33.3739 -290.985
4284.32 183.125 185.793 -920.367 -629.161
4287.24 142.947 126.975 -933.741 -1066.5
4290.15 54.853 148.338 -1345.4 -1379.98
4293.06 247.215 148.713 -1860.79 -2033.3
4295.97 144.071 146.584 -2893.73 -2872.41
4298.89 48.4651 102.744 -3862.71 -3674.05
4301.8 115.694 88.8906 -4265.71 -4335.93
4304.71 102.512 84.9941 -4879.38 -4813.49
4307.62 36.7757 74.7579 -5295.39 -4883.36
4310.53 84.9855 101.327 -4475.31 -4493.13
4313.45 182.221 125.336 -3708.69 -3565.27
4316.36 108.802 192.662 -2511.82 -2499.37
4319.27 286.964 146.558 -1277.6 -1686.1
4322.18 43.9088 154.217 -1268.89 -997.533
4325.09 131.779 145.418 -446.104 -195.129
4328.01 260.565 184.725 1129.61 739.17
4330.92 161.831 152.726 1534.01 1316.7
4333.83 35.7826 86.9479 1286.47 1122.45
4336.74 63.2298 80.1957 546.869 654.21
4339.65 141.575 75.165 129.286 214.568
4342.56 20.6903 63.4779 -32.4511 10.056
4345.48 28.1685 56.8961 -66.6667 -37.276
4348.39 121.829 104.089 -12.7101 -287.311
4351.3 162.269 146.236 -782.556 -702.476
4354.21 154.609 133.138 -1312.16 -1261.97
4357.12 82.5354 176.328 -1691.21 -1608.53
4360.03 291.838 189.564 -1822.22 -2201.24
4362.94 194.318 261.759 -3090.29 -3242.1
4365.85 299.121 242.386 -4813.78 -4816.81
4368.77 233.719 198.024 -6546.37 -6462.1
4371.68 61.2328 200.441 -8026.15 -7930.51
4374.59 306.371 193.983 -9219.01 -8779.22
4377.5 214.346 291.237 -9092.48 -9504.39
4380.41 352.994 259.761 -10201.7 -9929.6
4383.32 211.944 304.92 -10494.6 -10300.7
4386.23 349.821 227.79 -10205.8 -9849.03
4389.14 121.605 287.709 -8846.62 -9093.96
4392.05 391.7 251.125 -8229.42 -8386.4
4394.96 240.068 245.082 -8083.17 -8068.88
4397.87 103.478 253.801 -7894.04 -7857.86
4400.79 417.858 235.247 -7596.38 -7649.46
4403.7 184.405 327.108 -7457.95 -7212.14
4406.61 379.061 276.587 -6582.08 -6470.41
4409.52 266.295 379.687 -5371.2 -5513.27
4412.43 493.706 305.147 -4586.52 -4759.77
4415.34 155.441 321.817 -4321.58 -4499.42
4418.25 316.304 235.337 -4590.15 -4597.29
4421.16 234.266 266.836 -4880.15 -5248.21
4424.07 249.938 254.696 -6274.33 -5912.1
4426.98 279.884 278.049 -6581.82 -6608.51
4429.89 304.326 360.604 -6969.37 -6693.03
4432.8 497.603 433.739 -6527.9 -6848.14
4435.71 499.289 452.356 -7047.15 -6789.21
4438.62 360.176 426.562 -6792.58 -6934.65
4441.53 420.22 291.178 -6964.23 -6724.94
4444.44 93.14 299.937 -6418.01 -6646.73
4447.35 386.452 304.355 -6557.94 -6309.63
4450.26 433.474 402.642 -5952.95 -5835.67
4453.17 388.001 369.248 -4996.11 -5043.16
4456.08 286.269 334.014 -4180.42 -4115.24
4458.99 327.773 336.026 -3169.17 -2976.76
4461.89 394.035 396.947 -1580.69 -2288.23
4464.8 469.033 356.602 -2114.83 -2615.41
4467.71 206.736 308.197 -4150.71 -3525.21
4470.62 248.822 272.065 -4310.08 -4646.5
4473.53 360.636 320.598 -5478.71 -5516.5
4476.44 352.338 334.851 -6760.7 -6347.89
4479.35 291.579 292.65 -6804.27 -6692.18
4482.26 234.034 323.791 -6511.57 -6147.37
4485.17 445.758 328.012 -5126.27 -4657.16
4488.08 304.243 398.825 -2333.63 -2729.92
4490.99 446.475 361.868 -729.849 -820.168
4493.9 334.887 371.765 602.972 500.534
4496.8 333.933 387.327 1628.48 1412.55
4499.71 493.159 371.03 2006.19 2139.19
4502.62 285.997 337.393 2782.91 2378.43
4505.53 233.024 279.345 2346.2 2075.11
4508.44 319.016 275.504 1096.21 1109.7
4511.35 274.473 314.401 -113.32 -10.5828
4514.26 349.715 278.386 -1014.64 -1338.67
4517.16 210.972 303.288 -2888.04 -2369.53
4520.07 349.177 279.101 -3205.92 -3463.11
4522.98 277.153 277.061 -4295.36 -4455.45
4525.89 204.851 294.041 -5865.07 -5235.73
4528.8 400.117 306.173 -5546.76 -5923.34
4531.7 313.552 243.72 -6358.21 -5875.3
4534.61 17.4919 157.561 -5720.92 -5507.71
4537.52 141.641 179.644 -4444 -4358.8
4540.43 379.798 258.342 -2911.48 -2917.26
4543.34 253.588 304.69 -1396.29 -1364.17
4546.24 280.682 262.065 215.251 -221.536
4549.15 251.926 316.866 516.428 427.197
4552.06 417.99 298.864 549.911 594.787
4554.97 226.677 217.295 718.02 349.072
4557.88 7.21862 171.142 -220.716 45.6786
4560.78 279.531 157.445 -360.268 -849.15
4563.69 185.586 259.403 -1966.47 -1473.04
4566.6 313.092 255.604 -2092.38 -1873.69
4569.5 268.134 299.463 -1562.22 -1720.41
4572.41 317.164 294.173 -1506.65 -1292.02
4575.32 297.22 260.068 -807.192 -1056.88
4578.23 165.819 266.018 -856.807 -399.32
4581.13 335.015 285.797 466.041 241.159
4584.04 356.556 340.28 1114.24 736.45
4586.95 329.269 345.447 629.066 438.087
4589.85 350.516 439.231 -429.05 -133.404
4592.76 637.906 474.347 -600.228 -590.23
4595.67 434.618 450.035 -741.413 -915.474
4598.58 277.581 382.939 -1404.78 -578.695
4601.48 436.617 308.332 410.11 251.275
4604.39 210.797 336.388 1748.49 1370.71
4607.29 361.75 277.768 1953.53 2441.97
4610.2 260.757 366.757 3623.89 3162.71
4613.11 477.765 323.643 3910.73 3280.3
4616.01 232.406 389.647 2306.29 1938.66
4618.92 458.769 358.02 -401.026 -64.6655
4621.83 382.884 417.731 -2099.26 -1300.88
4624.73 411.54 384.103 -1402.36 -1944.67
4627.64 357.884 466.95 -2332.4 -2560.19
4630.55 631.424 468.047 -3945.82 -3431.85
4633.45 414.831 493.672 -4017.34 -4101.03
4636.36 434.76 438.823 -4339.92 -4413.23
4639.26 466.876 447.456 -4882.44 -5061.8
4642.17 440.731 451.831 -5963.05 -5898.37
4645.07 447.884 402.861 -6849.61 -6922.78
4647.98 319.969 377.092 -7955.67 -8259.66
4650.89 363.423 416.42 -9973.7 -10274.1
4653.79 565.867 442.815 -12893 -12440.4
4656.7 399.155 459.722 -14454.4 -13201.1
4659.6 414.144 476.958 -12256 -11912.1
4662.51 617.576 577.041 -9026.01 -9266.91
4665.41 699.405 622.929 -6518.75 -7057.78
4668.32 551.807 586.077 -5628.59 -6192.87
4671.22 507.021 463.921 -6431.28 -6204.44
4674.13 332.934 431.323 -6553.45 -5952.93
4677.03 454.015 372.441 -4874.07 -4450.67
4679.94 330.375 432.44 -1924.49 -1922.33
4682.84 512.93 435.401 1031.57 382.97
4685.75 462.899 443.475 2041.84 1936.01
4688.65 354.597 404.674 2734.62 1688.77
4691.56 396.526 440.595 289.853 -115.477
4694.46 570.66 427.072 -3370.91 -2595.65
4697.37 314.029 442.427 -4705.89 -3899.57
4700.27 442.592 419.836 -3621.91 -3195.11
4703.18 502.886 465.843 -1257.52 -1176.88
4706.08 452.051 399.764 1348.8 823.783
4708.98 244.354 354.182 2380.07 2688.03
4711.89 366.14 346.977 4335.23 4611.12
4714.79 430.436 457.68 7118.06 6335.27
4717.7 576.463 514.429 7552.5 6218.86
4720.6 536.388 486.223 3986.01 4688.21
4723.51 345.818 384.424 2526.11 2775.32
4726.41 271.066 387.088 1813.84 1137.91
4729.31 544.378 440.991 -926.217 -154.885
4732.22 507.528 462.455 -1352.28 -454.762
4735.12 335.46 439.851 914.212 407.677
4738.02 476.566 408.703 1661.1 1614.4
4740.93 414.083 445.131 2267.9 2212.18
4743.83 444.743 460.219 2707.55 3124.68
4746.73 521.833 429.424 4398.6 5123.61
4749.64 321.698 482.365 8264.69 6695.87
4752.54 603.564 417.3 7424.33 6506.16
4755.44 326.639 495.787 3829.45 4627.37
4758.35 557.159 443.437 2628.33 2924.98
4761.25 446.514 476.988 2317.17 2611.32
4764.15 427.289 399.679 2888.46 3449.35
4767.06 325.235 352.806 5142.42 5125.45
4769.96 305.895 323.16 7345.49 6444.39
4772.86 338.35 339.908 6845.26 5904.91
4775.77 375.478 280.922 3523.98 3231.24
4778.67 128.938 290.026 -675.522 -13.9251
4781.57 365.66 309.589 -2890.23 -2893.65
4784.47 434.17 337.208 -5115.19 -5041.34
4787.38 211.793 304.153 -7118.6 -5404.62
4790.28 266.495 264.565 -3980.05 -3470.74
4793.18 315.408 283.764 686.427 85.2111
4796.08 269.388 272.607 3549.26 2816.12
4798.98 233.025 183.17 4212.67 3713.19
4801.89 47.0976 234.972 3377.65 2894.64
4804.79 424.795 229.707 1093.6 1881.35
4807.69 217.228 301.406 1172.81 2147.03
4810.59 262.196 200.085 4174.67 3800.43
4813.49 120.83 141.445 6053.81 5550.59
4816.4 41.3103 85.335 6423.29 6889.96
4819.3 93.8651 129.181 8192.78 5239.53
4822.2 252.367 190.813 1102.52 2160.63
4825.1 226.207 162.047 -2813.41 -2142.31
4828 7.56845 131.49 -4716.04 -3934.46
4830.9 160.695 128.11 -4273.92 -5088.05
4833.81 216.067 130.289 -6274.2 -4341.12
4836.71 14.1035 81.8317 -2475.26 -2771.77
4839.61 15.3242 78.4315 434.156 585.661
4842.51 205.867 77.0926 3798.08 3519.19
4845.41 10.0869 107.947 6325.33 4465.7
4848.31 107.889 93.3517 3273.69 4955.51
4851.21 162.08 159.225 5267.5 3705.93
4854.11 207.706 145.778 2576.59 3713.13
4857.01 67.5487 181.706 3295.31 2568.64
4859.91 269.864 176.853 1834.03 2919.48
4862.82 193.148 237.05 3629.11 1805.26
4865.72 248.14 219.017 -47.3781 1514.31
4868.62 215.765 307.254 961.19 1212.76
4871.52 457.856 306.009 2724.45 3061.45
4874.42 244.406 349.658 5498.69 3927.09
4877.32 346.711 365.6 3558.12 2851.14
4880.22 505.683 424.414 -503.388 37.5914
4883.12 420.848 436.628 -2941.95 -609.583
4886.02 383.354 441.497 1616.59 174.338
4888.92 520.29 472.052 1848.38 594.678
4891.82 512.514 541.958 -1680.93 -930.304
4894.72 593.07 535.717 -2958.35 -2676.89
4897.62 501.568 578.037 -3391.38 -3136.47
4900.52 639.473 570.517 -3059.66 -2874.22
4903.42 570.509 568.261 -2171.63 -3832.55
4906.32 494.802 593.57 -6266.37 -3120.53
4909.21 715.397 612.459 -923.594 -617.912
4912.11 627.176 697.377 5336.23 1776.48
4915.01 749.558 657.428 916.811 246.493
4917.91 595.549 661.82 -5513.56 -2610.62
4920.81 640.352 624.838 -3235.1 -1937.04
4923.71 638.612 630.63 2937.53 329.023
4926.61 612.925 658.559 1284.64 -470.705
4929.51 724.139 619.187 -5634.28 -3135.59
4932.41 520.496 623.879 -5057.12 -3658.88
4935.31 627.002 666.888 -285.244 -397.929
4938.2 853.166 711.595 4148.58 1800.94
4941.1 654.618 727.711 1539.48 3066.5
4944 675.35 649.996 3511.44 2311.48
4946.9 620.019 596.102 1883.53 4446.54
4949.8 492.937 625.99 7944.67 7831.8
4952.7 765.014 672.833 13667.2 11643.5
4955.59 760.548 736.819 13318.7 10423.9
4958.49 684.896 692.614 4285.89 7370.2
4961.39 632.396 622.238 4505.98 3653.77
4964.29 549.42 590.77 2169.44 4082.8
4967.19 590.492 593.776 5572.99 3143
4970.08 641.415 657.259 1686.58 3570.07
4972.98 739.871 677.837 3450.64 3581.67
4975.88 652.226 659.884 5607.8 2735.18
4978.78 587.556 623.423 -852.887 2535.32
4981.67 630.488 641.594 2851.04 -4714.29
4984.57 706.74 673.443 -16141 -7391.5
4987.47 683.102 697.169 -8884.54 -7957.71
4990.37 701.666 650.625 1152.44 -1492.79
4993.26 567.109 595.28 3253.72 4352.38
4996.16 517.066 511.272 8650.99 4655.24
4999.06 449.641 516.781 2061.02 2790.39
5001.95 583.635 453.192 -2340.84 -771.123
5004.85 326.3 477.443 -2033.55 421.824
5007.75 522.393 441.235 5639.86 4776.79
5010.64 475.013 563.196 10724.1 6405.65
5013.54 692.181 573.203 2853.04 6036.49
5016.44 552.416 530.008 4532.37 4025.46
5019.33 345.426 500.107 4690.96 4013.52
5022.23 602.478 430.43 2817.24 -680.419
5025.13 343.386 491.377 -9549.46 -4150.5
5028.02 528.266 455.916 -5719.29 -8780.88
5030.92 496.095 488.426 -11073.9 -7672.66
5033.81 440.917 466.655 -6224.79 -9469.79
5036.71 462.953 498.89 -11110.7 -3987.75
5039.61 592.799 521.265 5372.21 4190.58
5042.5 508.042 546.941 18310.2 8609.19
5045.4 539.982 486.941 2145.17 8079.49
5048.29 412.801 504.677 3783.11 2953.85
5051.19 561.249 434.816 2933.27 -516.917
5054.08 330.399 494.464 -8267.13 -5370.3
5056.98 591.743 492.718 -10777 -10213.8
5059.87 556.012 589.055 -11597.2 -11137.1
5062.77 619.41 578.282 -11037 -12409.8
5065.67 559.423 538.533 -14595.4 -7846.53
5068.56 436.764 548.186 2092.76 -4548.43
5071.46 648.371 509.249 -1142.69 2373.29
5074.35 442.613 496.836 6169.79 10881.3
5077.24 399.526 488.811 27616.8 12081.8
5080.14 624.295 560.695 2458.71 11520.4
5083.03 658.265 661.911 4485.67 2540.22
5085.93 703.173 627.056 676.29 -3577.61
5088.82 519.731 541.67 -15894.8 -7615.15
5091.72 402.106 443.058 -7626.94 -9195.45
5094.61 407.338 464.288 -4064.61 -1158.8
5097.51 583.42 558.761 8215.15 5421.86
5100.4 685.524 623.779 12115 7364.6
5103.29 602.394 636.747 1763.62 7969.07
5106.19 622.324 645.831 10028.5 5481.25
5109.08 712.774 603.316 4651.59 11330.3
5111.97 474.85 522.992 19310.7 9265.91
5114.87 381.351 491.178 3835.45 12052.8
5117.76 617.332 474.782 13012.2 6673.38
5120.66 425.664 526.655 3172.53 4634.73
5123.55 536.97 502.85 -2280.51 3827.21
5126.44 545.917 513.485 10589.6 1321.86
5129.34 457.567 528.676 -4343.53 8256.64
5132.23 582.543 532.583 18523.8 10380.7
5135.12 557.64 570.24 16961.8 19527.5
5138.01 570.538 579.08 23096.8 14964.8
5140.91 609.062 550.425 4835.76 11536.6
5143.8 471.675 542.456 6677.16 7965.35
5146.69 546.632 490.92 12383.1 8656.01
5149.59 454.452 462.861 6907.73 9374.74
5152.48 387.499 423.475 8833.34 5760.68
5155.37 428.475 499.396 1540.96 9196.74
5158.26 682.215 445.572 17215.9 12004.6
5161.15 226.027 419.464 17256.8 15042.1
5164.05 350.15 270.591 10653.6 12366.7
5166.94 235.595 339.118 9189.88 10204.5
5169.83 431.609 315.658 10770.1 11792.2
5172.72 279.771 403.75 15416.6 10575.4
5175.61 499.87 349.313 5539.58 11372.3
5178.51 268.299 393.582 13160.7 9729.77
5181.4 412.576 342.488 10489 11325.8
5184.29 346.59 348.702 10327.6 6159.55
5187.18 286.94 383.147 -2338.01 3844.99
5190.07 515.912 408.684 3545.34 1198.31
5192.96 423.201 412.472 2387.59 3839.9
5195.85 298.304 427.912 5586.76 2113.25
5198.75 562.23 455.579 -1634.6 3413.96
5201.64 506.203 466.69 6289.71 1827.61
5204.53 331.636 440.681 827.731 2676.61
5207.42 484.205 459.281 912.38 241.256
5210.31 562.002 531.082 -1016.34 -559.098
5213.2 547.038 509.872 -1573.33 -564.658
5216.09 420.577 488.444 895.702 -1862.17
5218.98 497.718 472.321 -4908.87 6812.52
5221.87 498.667 474.601 24450.7 8433.26
5224.76 427.419 486.48 5757.92 14437.8
5227.65 533.355 485.586 13104.8 6822.08
5230.54 495.985 578.551 1603.48 8503.18
5233.43 706.314 577.843 10801.2 3481.41
5236.32 531.23 578.081 -1960.49 2888.56
5239.21 496.699 538.554 -175.048 -685.395
5242.1 587.733 546.172 79.3512 3391.12
5244.99 554.083 536.53 10269.1 -3100.52
5247.88 467.775 517.46 -19650 -5357.4
5250.77 530.522 480.024 -6691.27 -7554.79
5253.66 441.775 513.964 3676.88 -1744.59
5256.55 569.595 536.921 -2219.38 2179.57
5259.44 599.394 588.707 5081.22 1262.68
5262.33 597.133 586.336 926.216 6495.24
5265.22 562.48 574.04 13478.3 5373.13
5268.1 562.507 550.854 1714.87 6495.45
5270.99 527.575 503.405 4293.18 290.19
5273.88 420.133 492.292 -5137.48 -1133.15
5276.77 529.168 493.302 -2555.14 -3264.85
5279.66 530.604 523.823 -2101.94 -642.132
5282.55 511.695 594.41 2730.68 69.5307
5285.44 740.932 576.911 -420.155 818.806
5288.32 478.104 573.211 145.89 -963.335
5291.21 500.596 470.582 -2615.74 1412.87
5294.1 433.047 500.433 6708.46 3434.4
5296.99 567.657 531.254 6210.48 5600.4
5299.88 593.059 542.785 3882.25 4254.12
5302.76 467.64 491.26 2669.63 3493.07
5305.65 413.08 462.183 3927.33 2386.44
5308.54 505.828 516.33 562.364 1089.98
5311.43 630.082 579.562 -1219.77 -696.95
5314.31 602.776 640.309 -1433.44 1245.17
5317.2 688.068 610.482 6388.73 3998
5320.09 540.602 579.796 7038.7 5428.68
5322.97 510.719 538.959 2858.61 5354.99
5325.86 565.558 535.309 6167.68 3005.09
5328.75 529.651 587.208 -11.0128 4076.12
5331.64 666.417 519.219 6071.69 3935.69
5334.52 361.589 557.552 5746.38 5818.81
5337.41 644.65 495.604 5638.37 4464.32
5340.3 480.573 538.419 2008.21 2307.33
5343.18 490.035 500.965 -724.61 1790.36
5346.07 532.286 526.367 4087.47 602.54
5348.95 556.779 482.426 -1555.24 2033.16
5351.84 358.214 483.888 3567.25 1258.77
5354.73 536.671 468.582 1764.29 4396.68
5357.61 510.862 517.239 7858.52 2364.04
5360.5 504.185 489.763 -2530.69 2448.46
5363.38 454.241 540.131 2017.55 105.313
5366.27 661.966 566.792 829.076 2127.51
5369.15 584.168 632.932 3535.89 2691.63
5372.04 652.661 575.386 3709.93 1083.78
5374.93 489.327 546.573 -3994.47 -1389.37
5377.81 497.731 555.189 -3883.56 98.3808
5380.7 678.509 641.56 8173.17 6747.76
5383.58 748.439 606.989 15953.7 7193.33
5386.47 394.019 515.253 -2546.84 1506.37
5389.35 403.301 457.666 -8887.73 -2106.07
5392.23 575.679 530.762 5116.37 3820
5395.12 613.306 523.397 15231.4 7851.72
5398 381.207 481.604 3207.44 5700.26
5400.89 450.299 465.389 -1338 1061.64
5403.77 564.663 567.715 1315.47 1923.23
5406.66 688.184 538.182 5792.23 6097.35
5409.54 361.7 536.607 11184.3 7479.1
5412.43 559.937 504.878 5460.73 4542.33
5415.31 592.996 517.793 -3018.07 1535.68
5418.19 400.447 519.671 2164.37 1083.02
5421.08 565.57 452.192 4102.75 4603.56
5423.96 390.558 497.776 7543.57 1944.46
5426.84 537.2 495.077 -5812.94 -1294.13
5429.73 557.474 539.606 -5613.03 752.211
5432.61 524.145 519.366 13682.6 2468.1
5435.49 476.478 571.498 -665.283 5070.52
5438.38 713.871 534.165 2194.25 1724.48
5441.26 412.145 548.189 3644.47 4649.29
5444.14 518.549 466.942 8109.16 10472.1
5447.03 470.133 479.736 19662.6 11592.7
5449.91 450.525 472.635 7006.43 11294.3
5452.79 497.247 509.083 7213.84 7221.86
5455.67 579.478 561.028 7445.33 8264.93
5458.56 606.36 574.689 10135.6 4334.2
5461.44 538.228 538.865 -4578.36 7104.67
5464.32 472.005 465.786 15756.7 9957.98
5467.2 387.126 388.694 18695.6 6753.32
5470.08 306.951 430.411 -14192.4 2038.32
5472.97 597.154 431.955 1611.74 -4132.09
5475.85 391.76 554.968 184.355 1866.17
5478.73 675.99 543.205 3802.43 7325.38
5481.61 561.864 653.298 17989.4 9237.69
5484.49 722.039 602.331 5921.28 3464.62
5487.37 523.091 606.32 -13516.8 -11410.3
5490.25 573.831 536.763 -26635.3 -9929.29
5493.14 513.367 518.946 10364.2 -5980.5
5496.02 469.64 514.641 -1670.41 2920.9
5498.9 560.916 498.099 68.8828 712.666
5501.78 463.741 524.821 3739.53 -1969.19
5504.66 549.806 506.096 -9715.99 860.398
5507.54 504.741 500.521 8557.65 2228.09
5510.42 447.017 488.899 7842.59 10214.3
5513.3 514.938 488.56 14242.8 14962.1
5516.18 503.724 566.475 22800.8 11239.1
5519.06 680.762 538.281 -3326.33 1424.2
5521.94 430.358 539.813 -15201.9 7862.34
5524.82 508.319 514.584 42115.3 11732.5
5527.7 605.074 613.826 8284.12 14024.5
5530.58 728.085 646.977 -8325.86 -41.9999
5533.46 607.771 640.645 -84.2578 -20359.7
5536.34 586.078 571.854 -52669.1 -24781.9
5539.22 521.714 537.111 -21592.3 -18881.5
5542.1 503.539 523.22 17616.8 -7688.85
5544.98 544.406 548.987 -19091.1 6011.64
5547.86 599.015 525.645 19509.2 -1523.64
5550.74 433.513 518.859 -4988.99 7016.51
5553.61 524.048 472.219 6529.36 30728.8
5556.49 459.096 515.53 90646.1 21723.2
5559.37 563.446 468.783 -32005.8 -11065.3
5562.25 383.806 448.666 -91836.4 -23091.7
5565.13 398.747 409.55 54567 6220.52
5568.01 446.098 500.714 55930.9 28716.7
5570.89 657.295 518.314 -24347.7 19038.8
5573.76 451.55 576.993 25533.2 24022.9
5576.64 622.134 517.17 70883.2 48370
5579.52 477.827 499.552 48693.5 52301.3
5582.4 398.695 421.625 37327.4 47722.7
5585.28 388.353 472.564 57147.3 51167.8
5588.15 630.644 509.397 59028.6 37344.4
5591.03 509.194 563.21 -4142.61 -349.979
5593.91 549.791 459.053 -55936 -21376
5596.79 318.172 444.856 -4049.42 -17719.7
5599.66 466.604 446.303 6826.21 20342.7
5602.54 554.133 569.382 58251.3 54372.6
5605.42 687.409 620.791 98040.4 57709.9
5608.29 620.83 659.584 16837.9 11653.5
5611.17 670.513 618.345 -79917.8 1392.79
5614.05 563.691 626.215 67258.3 13969.6
5616.92 644.442 625.068 54568.4 18140.8
5619.8 667.071 618.49 -67404.2 -6168.89
5622.68 543.956 563.01 -5670.83 5390.4
5625.55 478.003 611.079 89246.2 46049.9
5628.43 811.277 607.935 54574.4 22766.1
5631.3 534.524 579.233 -75522.4 -38170.4
5634.18 391.897 554.46 -93563.2 -28817.7
5637.06 736.958 599.753 82632.6 7400.77
5639.93 670.405 666.497 33133 31134.6
5642.81 592.129 575.115 -22361.8 25008.2
5645.68 462.812 558.569 64253.4 34181.7
5648.56 620.767 489.757 60653.6 36568.6
5651.43 385.692 520.443 -15201.3 -2132.84
5654.31 554.871 488.588 -51850.8 -29461.9
5657.18 525.202 521.343 -21333.5 -17228
5660.06 483.955 477.887 21500.2 11013.8
5662.93 424.504 500.235 32874.8 10835.6
5665.81 592.245 489.627 -21868.1 3715.05
5668.68 452.131 541.001 138.52 3881.75
5671.56 578.627 504.931 33374.9 7465.02
5674.43 484.035 556.797 -11118.3 3973.78
5677.3 607.729 490.874 -10335.2 -5939.54
5680.18 380.858 517.696 3634.91 4607.43
5683.05 564.501 473.386 20522.6 18048.5
5685.93 474.798 495.079 29987.9 13667.5
5688.8 445.938 520.292 -9508 -6467.53
5691.67 640.139 516.646 -39882.5 -17400.8
5694.55 463.859 603.973 -2811.9 -22148.1
5697.42 707.921 585.266 -23750 7073.52
5700.29 584.016 604.05 47782.5 22590.2
5703.17 520.211 550.516 43738.3 26847.1
5706.04 547.319 527.755 -10979.4 2172.01
5708.91 515.734 530.107 -26242.9 -8412.45
5711.78 527.269 522.234 11984.9 -9128.78
5714.66 523.699 510.686 -13128.3 1557.54
5717.53 481.089 533.404 5816.06 3711.35
5720.4 595.423 511.375 18446.3 13560.6
5723.27 457.612 566.953 16419.5 8643.38
5726.15 647.824 510.686 -8935.65 5328.24
5729.02 426.624 529.246 8500.91 22017.9
5731.89 513.291 515.705 66488.5 34180.2
5734.76 607.199 547.46 27551.3 22306.1
5737.63 521.892 543.684 -27121.5 -2738.87
5740.51 501.96 493.391 -8646.4 506.578
5743.38 456.32 546.717 37287.6 11620.3
5746.25 681.87 563.377 6219.83 12501.6
5749.12 551.942 596.049 -6002.55 15804.6
5751.99 554.336 538.313 47196.6 15715.2
5754.86 508.661 497.355 5951.64 2068.97
5757.73 429.068 447.001 -46941.4 -12268.5
5760.6 403.275 485.452 4184.18 -14719
5763.47 624.014 506.327 -1399.82 144.288
5766.34 491.693 567.432 -2351.5 6277.07
5769.22 586.588 537.971 22582.5 1690.62
5772.09 535.632 533.975 -15159.2 -5287.94
5774.96 479.706 511.735 -23287.2 -15222
5777.83 519.867 553.623 -7219.54 -2774.9
5780.7 661.295 535.612 22182 10498.9
5783.57 425.675 583.358 16534.3 5312.74
5786.44 663.103 581.402 -22778.1 -2404.95
5789.3 655.427 600.762 -971.019 -17.714
5792.17 483.757 550.073 23696 7732.73
5795.04 511.035 437.921 473.215 9618.37
5797.91 318.971 437.197 4685.91 10347.5
5800.78 481.587 387.115 25883.5 20519.4
5803.65 360.786 453.192 30988.7 17532.7
5806.52 517.203 435.924 -4274.03 7074.23
5809.39 429.782 516.979 -5492 5469.62
5812.26 603.95 547.401 26174.9 13429.4
5815.13 608.472 566.881 19605.2 13981.6
5817.99 488.223 499.949 -3835.19 2190.25
5820.86 403.152 510.434 -9199.3 -7592.92
5823.73 639.928 538.81 -9744.27 -12677.1
5826.6 573.35 592.064 -19087.8 -7782.63
5829.47 562.913 532.741 5484.14 -5249.89
5832.33 461.961 499.925 -2146.06 -2798.68
5835.2 474.901 486.458 -11734.1 1934.35
5838.07 522.511 538.635 19683.2 4487.32
5840.94 618.491 506.409 5512.85 12607.9
5843.8 378.224 505.57 12627.6 12774.1
5846.67 519.995 433.691 20182 12656.9
5849.54 402.854 465.197 5161.1 5563.5
5852.41 472.743 457.227 -8652.6 2677.08
5855.27 496.084 507.66 11522.7 7622.46
5858.14 554.154 515.385 19997.2 13636.6
5861.01 495.917 528.205 9389.95 15308.6
5863.87 534.543 480.161 16538.6 9671.65
5866.74 410.021 488.947 3086.38 3957.03
5869.6 522.277 457.498 -7753.9 -2666.6
5872.47 440.194 458.545 -3332.29 -334.258
5875.34 413.164 420.767 10083.4 5317.92
5878.2 408.943 424.191 9202.64 7147.16
5881.07 450.467 432.417 2155.41 2079.69
5883.93 437.841 518.62 -5118.99 4302.59
5886.8 667.553 532.505 15871.3 6121.22
5889.66 492.119 521.895 7611.31 8538.29
5892.53 406.012 474.964 2132.22 7348.62
5895.4 526.761 484.024 12302.3 5850.03
5898.26 519.3 482.787 3115.53 6387.02
5901.12 402.3 376.097 3743.19 2097.28
5903.99 206.692 419.96 -566.897 3469.73
5906.85 650.887 451.682 7232.9 1583.73
5909.72 497.469 505.532 -1914.82 2607.34
5912.58 368.24 470.109 2503.94 1667.46
5915.45 544.617 484.649 4413.27 1325.49
5918.31 541.091 564.454 -2940.73 -426.99
5921.18 607.655 571.034 -2753.5 -3299.94
5924.04 564.355 541.316 -4205.57 -3651.46
5926.9 451.937 510.913 -3995.31 -1288.78
5929.77 516.446 496.142 4334.53 -642.986
5932.63 520.043 497.653 -2268.18 1961.06
5935.49 456.47 511.272 3816.82 5707.81
5938.36 557.303 519.563 15574.8 5541.83
5941.22 544.917 548.785 -2766.14 6936.75
5944.08 544.135 525.093 8001.57 3372.54
5946.95 486.228 507.373 4882.18 8887.37
5949.81 491.755 518.402 13778.4 8210.65
5952.67 577.224 549.97 5971.41 13592.4
5955.53 580.931 576.091 21027.4 11913.6
5958.4 570.118 557.362 8741.96 9842.74
5961.26 521.037 531.578 -241.087 8192.42
5964.12 503.577 542.218 16076.4 6271.78
5966.98 602.039 543.258 2980.03 9246.93
5969.84 524.158 562.759 8684.36 4804.92
5972.7 562.079 519.962 2750.39 2121.64
5975.57 473.648 543.533 -5069.82 2075.57
5978.43 594.872 563.073 8546.15 1813.48
5981.29 620.699 579.064 1964.12 6777.8
5984.15 521.62 559.079 9823.13 6567.44
5987.01 534.917 549.756 7915.06 6084.09
5989.87 592.729 534.959 514.089 4999.57
5992.73 477.232 520.902 6569.58 3555.13
5995.59 492.746 503.711 3581.73 4004.43
5998.45 541.154 525.268 1861.98 4116.77
6001.31 541.904 586.528 6906.6 4271.74
6004.17 676.527 544.482 4046.65 4834.7
6007.04 415.015 530.599 3550.85 598.255
6009.9 500.254 484.691 -5802.73 6202.91
6012.75 538.805 514.386 20860.6 6249.59
6015.61 504.098 514.718 3690.9 6674.37
6018.47 501.253 489.363 -4528.42 87.904
6021.33 462.738 478.834 1101.23 1998.64
6024.19 472.51 550.755 9423.12 -2656.59
6027.05 717.018 579.067 -18494.1 -1392.7
6029.91 547.673 578.939 4892.89 -8032.08
6032.77 472.126 536.176 -10495 2546.06
6035.63 588.73 512.866 13240.3 -97.3619
6038.49 477.743 536.526 -3037.39 6376.14
6041.35 543.104 550.154 8925.49 2946.65
6044.2 629.614 591.419 2951.85 3674.76
6047.06 601.537 554.802 -853.071 -218.922
6049.92 433.254 555.567 -2755.55 1913.61
6052.78 631.909 490.728 9349.44 1323.21
6055.64 407.02 570.163 -2624.27 4671.34
6058.5 671.559 532.475 7288.85 2944.2
6061.35 518.846 579.745 4168.02 7778.71
6064.21 548.831 524.109 11879.3 5084.84
6067.07 504.651 517.092 -792.768 6609.65
6069.92 497.795 510.544 8742.43 4041.38
6072.78 529.185 526.673 4174.48 6053.27
6075.64 553.039 519.798 5242.89 -2222.09
6078.5 477.17 486.767 -16083.6 1086.61
6081.35 430.092 475.212 14100.6 1188.12
6084.21 518.373 480.098 5547.4 5082.5
6087.07 491.828 466.064 -4400.49 2170.22
6089.92 387.99 469.253 5363.76 3783.47
6092.78 527.942 505.615 10387.2 9222.39
6095.63 600.913 537.425 11916.2 11731.1
6098.49 483.421 510.835 12889.9 6354.43
6101.35 448.17 406.355 -5742.79 8611.14
6104.2 287.472 393.037 18686.4 -4288.12
6107.06 443.469 414.586 -25807.9 2544.75
6109.91 512.816 534.471 14755.8 -7885.82
6112.77 647.128 555.59 -12605.4 4184.71
6115.62 506.826 501.777 10403.7 -5634.6
6118.48 351.377 423.035 -14702.1 -1007.75
6121.33 410.901 448.575 1275.17 -3475.91
6124.19 583.446 487.521 2999.21 1424.33
6127.04 468.216 522.832 -1.38599 3425.43
6129.9 516.835 489.027 7278.45 -2780.87
6132.75 482.03 460.512 -15619.7 3542.7
6135.6 382.673 463.367 18969.3 -4828.12
6138.46 525.4 472.579 -17834 174.904
6141.31 509.664 533.473 -610.584 -6930.02
6144.17 565.356 529.646 -2345.46 1406.86
6147.02 513.917 573.13 7176.62 -694.378
6149.87 640.116 488.386 -6914.29 3672.46
6152.73 311.126 474.015 10755 -1344.12
6155.58 470.802 443.32 -7873.1 4328.26
6158.43 548.031 499.334 10102.9 -1945.62
6161.29 479.167 504.563 -8066.59 3775.96
6164.14 486.49 455.142 9291.63 -1345.48
6166.99 399.768 462.582 -5261.48 2699.41
6169.84 501.487 483.338 4068.1 -3328.06
6172.7 548.76 514.307 -8790.81 2477.14
6175.55 492.675 526.431 12154.1 -5282.75
6178.4 537.857 507.36 -19211.6 5101.97
6181.25 491.548 492.63 22363.4 -5275.3
6184.1 448.486 449.208 -18977.7 10703.3
6186.96 407.59 497.762 28724.4 -5350.82
6189.81 637.21 504.176 -25799.1 8357.95
6192.66 467.729 551.072 22148.6 -5325.85
6195.51 548.278 526.075 -12327.1 10159.7
6198.36 562.218 519.241 20657.6 -3745.67
6201.21 447.228 462.251 -19567.6 10149.4
6204.06 377.306 399.457 29358.1 -1039.95
6206.91 373.837 489.905 -12910.4 6617.29
6209.76 718.571 558.701 3404.16 1755.57
6212.61 583.694 585.756 14773 7081.25
6215.46 455.004 477.656 3066.58 2667.83
6218.31 394.27 472.311 -9836.08 4901.09
6221.16 567.659 448.527 21472.8 -4935.28
6224.01 383.652 488.963 -26442.5 -965.632
6226.86 515.578 503.935 2072.86 -704.73
6229.71 612.575 530.313 22255.5 -2895.32
6232.56 462.786 518.951 -33014.3 1968.21
6235.41 481.491 476.425 16663.4 -6917.91
6238.26 484.996 488.527 -4402.88 -2536.43
6241.11 499.094 502.402 -19869.9 -4411.51
6243.96 523.115 522.451 11038.2 -2929.08
6246.81 545.145 509.875 44.3866 -2587.63
6249.66 461.366 518.031 -18845.5 -2205.81
6252.51 547.581 508.062 12183.7 -4667.13
6255.35 515.238 538.533 -7339.58 -694.076
6258.2 552.778 558.128 -6926.33 -6917.67
6261.05 606.368 576.653 -6487.1 -1985.7
6263.9 570.814 567.177 7456.34 4170.39
6266.75 524.349 515.366 11541.9 4246.69
6269.59 450.934 546.903 -6258.2 1716.12
6272.44 665.427 502.292 -135.353 5321.16
6275.29 390.515 457.928 22357 9941.73
6278.14 317.842 403.378 7603.5 4594.2
6280.98 501.777 454.196 -16177.9 3711.95
6283.83 542.968 540.423 19710.3 -481.57
6286.68 576.524 512.204 -4977.07 8736.34
6289.52 417.119 504.618 11475.8 -4237.11
6292.37 520.209 511.03 -19210 6016.52
6295.22 595.762 555.053 25783.8 -176.152
6298.06 549.188 583.822 -7102.21 5041.28
6300.91 606.517 526.834 -3557.76 -4005.57
6303.75 424.798 481.285 -1356.75 8841.85
6306.6 412.541 404.36 31440 6779.35
6309.44 375.74 448.373 -9745.24 10925
6312.29 556.836 475.203 11080.3 -1779.91
6315.14 493.034 473.032 -6674.76 10233.3
6317.98 369.226 448.431 26294.5 -2476.03
6320.83 483.033 437.229 -27047.8 5006.17
6323.67 459.428 491.376 15771.8 -4776.39
6326.52 531.666 475.004 -3053.17 3010.07
6329.36 433.919 508.817 -3688.44 21.4547
6332.2 560.867 470.771 6805.98 -122.625
6335.05 417.527 499.698 -3485.41 9440.94
6337.89 520.7 483.604 25002.3 -1062.9
6340.74 512.584 465.488 -24705.5 476.074
6343.58 363.18 481.427 1131.51 -7098.23
6346.42 568.516 469.757 2279.34 2977.43
6349.27 477.575 535.573 5521.44 -475.994
6352.11 560.629 491.155 -9228.76 -3351.25
6354.95 435.259 471.653 -6346.44 306.79
6357.8 419.07 440.113 16495.6 -2166.19
6360.64 466.009 490.875 -16647.7 -7542.89
6363.48 587.546 490.102 -22476.5 424.911
6366.33 416.752 457.723 40399 -3596.46
6369.17 368.87 441.615 -28711.8 12533.2
6372.01 539.223 436.305 25912.4 -1488.09
6374.85 400.821 435.23 -1664.9 2413.59
6377.69 365.646 388.399 -17006.8 -10496.3
6380.54 398.731 390.739 -12817.3 2368.89
6383.38 407.841 402.774 36930.7 3910.53
6386.22 401.75 458.62 -12381.8 1056.17
6389.06 566.27 439.665 -21380.4 2926.81
6391.9 350.974 454.747 42542.6 252.176
6394.74 446.996 403.285 -20405.7 14384
6397.59 411.885 400.983 21015.1 -1729.83
6400.43 344.069 378.453 -5798.84 6566.39
6403.27 379.406 383.232 4482.9 -3494.5
6406.11 426.221 401.698 -9167.55 10169.6
6408.95 399.467 407.141 35193.4 9072.28
6411.79 395.735 362.459 1191.03 4714.49
6414.63 292.174 361.76 -22240.9 6640.47
6417.47 397.37 316.219 40971.3 -5041.89
6420.31 259.111 338.127 -33856.1 25182.8
6423.15 357.901 319.499 68433.2 -5268.39
6425.99 341.484 309.449 -50382.3 21192.5
6428.83 228.962 264.245 45526.5 -13421.3
6431.67 222.289 257.321 -35408.1 19541.9
6434.5 320.712 285.313 48507.2 -9618.17
6437.34 312.94 338.674 -41953.6 5938.75
6440.18 382.371 305.327 11262.7 -8619.6
6443.02 220.669 244.785 4832.13 -5708.96
6445.86 131.315 189.319 -33221.7 -1831.61
6448.7 215.974 157.453 22894.7 -7020.69
6451.54 125.07 192.172 -10735.1 9436.94
6454.37 235.473 160.88 16151.2 3335.93
6457.21 122.096 189.894 4591.71 9970.03
6460.05 212.115 110.412 9167.17 8715.31
6462.89 -2.97404 134.316 12387.1 9163.27
6465.72 193.807 141.454 5935.59 -4329.29
6468.56 233.53 178.68 -31310.5 2.54807
6471.4 108.703 153.344 25382.6 -8659.45
6474.24 117.798 100.263 -20050.4 10172.2
6477.07 74.2892 106.676 25184.3 3837.78
6479.91 127.943 116.043 6379.41 11837
6482.75 145.896 153.353 3947.15 -3631.69
6485.58 186.221 175.094 -21221.6 6507.2
6488.42 193.165 174.881 36796.1 3509.72
6491.25 145.258 142.393 -5045.29 10167.1
6494.09 88.7563 150.602 -1249.56 -14802.2
6496.93 217.792 183.571 -38111.9 -12908.2
6499.76 244.166 183.646 636.843 -10607.6
6502.6 88.9808 185.717 5652.12 15154.5
6505.43 224.004 126.675 39174.6 3117.88
6508.27 67.0399 141.85 -35473.1 9226.93
6511.1 134.507 127.271 23979.3 -3708.08
6513.94 180.266 187.81 369.562 13037.4
6516.77 248.656 209.939 14763.4 4653.06
6519.61 200.896 222.411 -1173.75 -4692.05
6522.44 217.68 235.099 -27665.8 2983.6
6525.28 286.722 283.217 37790.3 380.636
6528.11 345.249 313.579 -8982.65 24610
6530.94 308.766 300.705 45022.2 -2577.62
6533.78 248.101 269.782 -43772.5 6560.99
6536.61 252.478 292.165 18433.2 -13088.5
6539.44 375.915 319.825 -13926.2 12323.9
6542.28 331.082 393.292 32464.6 3996.04
6545.11 472.881 362.015 -6550.31 1295.12
6547.94 282.082 397.316 -22029 -8970.06
6550.78 436.986 362.686 1669.1 -7572.41
6553.61 368.988 573.987 -2357.38 3338.44
6556.44 915.986 857.386 10703.6 13111.2
6559.27 1287.18 1286.64 30987.3 -852.146
6562.11 1656.76 1511.4 -44247.3 5519.67
6564.94 1590.27 1922.35 29819 -5985.52
6567.77 2520.03 2055.85 -3528.29 10891.7
6570.6 2057.24 2081.25 6384.4 -9123.1
6573.43 1666.49 1511.53 -30225.4 -6091.95
6576.26 810.861 1094.64 5565.14 -5077.23
6579.1 806.562 751.913 9428.57 11083.5
6581.93 638.317 779.544 18256.9 20559.4
6584.76 893.754 792.986 33992.6 1831.78
6587.59 846.886 853.624 -46754.2 3454.96
6590.42 820.233 851.695 23126.5 -18506.6
6593.25 887.965 853.531 -31892.2 2296.41
6596.08 852.396 869.628 15654.9 -11154
6598.91 868.522 882.203 -17224.8 2679.26
6601.74 925.69 928.121 9607.65 787.747
6604.57 990.151 993.236 9980.38 10785.6
6607.4 1063.87 1014.96 12768.8 13871.5
6610.23 990.852 1026.35 18865.5 20412.1
6613.06 1024.32 1027.5 29602.2 1575.62
6615.89 1067.34 1022.47 -43740.8 6311.42
6618.72 975.766 1110.61 33072.9 861.728
6621.54 1288.74 1124.82 13253.1 18738
6624.37 1109.95 1162.68 9888.06 4859.34
6627.2 1089.36 1024.14 -8563.15 -1308.33
6630.03 873.114 995.839 -5249.9 6732.17
6632.86 1025.04 1006.92 34009.6 1517.53
6635.69 1122.6 1060.66 -24207.1 7067.31
6638.51 1034.33 1130.26 11399.5 -2763.56
6641.34 1233.86 1121.58 4516.95 9931.03
6644.17 1096.55 1179.41 13876.7 18853
6647 1207.82 1113.82 38165.2 18967
6649.82 1037.1 1115.6 4859.02 14726.5
6652.65 1101.89 1092.12 1155.29 4136.62
6655.48 1137.35 1146.06 6395.54 2529.45
6658.3 1198.93 1200.32 37.527 -3364.82
6661.13 1264.68 1201.36 -16527.5 -18109.5
6663.96 1140.48 1161.05 -37838.4 4560.19
6666.78 1077.99 1035.17 68046.5 -9114.35
6669.61 887.03 950.459 -57551.2 9224.26
6672.44 886.353 952.061 17177.4 -4497.27
6675.26 1082.8 989.636 26881.9 3129.66
6678.09 999.756 1006.82 -34670.4 9751.07
6680.91 937.917 1026.32 37041.7 4246.49
6683.74 1141.28 978.143 10368.2 7599.5
6686.56 855.227 970.016 -24611.3 6434.39
6689.39 913.537 923.479 33546.3 2362.08
6692.21 1001.67 910.101 -1848.74 20053.1
6695.04 815.09 933.678 28461.7 18928.4
6697.86 984.271 911.289 30172.4 17766
6700.69 934.506 945.493 -5336.19 1715.02
6703.51 917.703 906.232 -19691.1 -4251.15
6706.33 866.487 868.413 12273.9 -9391.73
6709.16 821.048 873.072 -20757.9 21933.2
6711.98 931.68 817.309 74283.7 5156.52
6714.8 699.199 837.871 -38056.1 20634.7
6717.63 882.733 762.66 25676.4 -12026.8
6720.45 706.047 770.346 -23700.6 8193.08
6723.27 722.259 768.335 22603.4 -17748.9
6726.1 876.7 794.303 -52149.5 10312.3
6728.92 783.949 809.117 60483.1 -2069.71
6731.74 766.702 785.921 -14542.7 9625.46
6734.56 807.113 743.314 -17064 -15243.2
6737.39 656.127 734.929 -14123 4111.54
6740.21 741.546 721.843 43521.6 16225.2
6743.03 767.856 720.061 19277 27609.3
6745.85 650.78 713.097 20029.2 -977.114
6748.67 720.656 668.164 -42237.5 13245.1
6751.49 633.056 654.367 61943.7 13322.7
6754.32 609.389 637.733 20261.9 19600
6757.14 670.753 640.909 -23405.6 12641.5
6759.96 642.584 647.323 41068.2 17864.1
6762.78 628.63 636.205 35929.8 24642.6
6765.6 637.401 627.457 -3070.36 4952.97
6768.42 616.34 613.845 -18000.5 -1311.18
6771.24 587.795 611.744 17137.3 -4562.8
6774.06 631.096 581.015 -12825.2 9060.09
6776.88 524.154 598.589 22868.1 17937.1
6779.7 640.516 558.685 43768.5 13111.7
6782.52 511.385 552.011 -27301.6 3423.47
6785.34 504.133 549.919 -6196.52 136.119
6788.16 634.24 568.397 33906.4 20016.5
6790.98 566.818 588.363 32339.6 5748.91
6793.79 564.031 562.069 -48999.3 17773.1
6796.61 555.359 597.935 69978.9 8922.36
6799.43 674.415 536.958 5787.51 22112.1
6802.25 381.099 549.329 -9430.13 11162.1
6805.07 592.472 506.111 37128.8 17086.8
6807.89 544.762 553.665 23561.7 22303.9
6810.7 523.761 531.492 6221.11 8975.51
6813.52 525.951 483.284 -2856.32 2764.08
6816.34 400.14 471.267 4927.44 -2050.27
6819.16 487.709 489.625 -8221.93 6755.58
6821.97 581.024 552.771 23561.2 2166.97
6824.79 589.579 565.403 -8838.38 8770.37
6827.61 525.607 592.352 11588.3 26253.8
6830.42 661.869 575.557 76011.4 21034.5
6833.24 539.196 514.342 -24496.2 28959
6836.06 341.961 486.689 35361.7 -3122.37
6838.87 578.909 521.256 -20232.7 14442.5
6841.69 642.897 557.477 28198.5 -1227.89
6844.5 450.626 505.851 -11649.5 12147.7
6847.32 424.029 472.577 19894.1 -5109.72
6850.14 543.077 478.378 -23573.7 3111.91
6852.95 468.028 508.098 13015.4 -15006
6855.77 513.189 496.236 -34459.8 5973.59
6858.58 507.49 514.921 39365.2 12462.6
6861.4 524.082 470.52 32482.3 2919.38
6864.21 379.987 454.862 -63089.4 813.396
6867.02 460.518 395.695 33047.2 -24512.1
6869.84 346.581 418.834 -43494.2 12890
6872.65 449.403 432.834 49116.9 -6167.78
6875.47 502.518 420.516 -24126.1 22250.1
6878.28 309.626 406.579 41759.4 4656.43
6881.09 407.594 378.57 -3663.94 8787.62
6883.91 418.489 381.612 -11732.5 -1377.21
6886.72 318.752 378.885 11264.8 -9936.53
6889.53 399.412 394.541 -29341.9 10860.9
6892.35 465.459 449.449 50659.8 21727.8
6895.16 483.477 470.113 43865.4 31122.4
6897.97 461.403 479.931 -1158.19 26570.7
6900.78 494.914 436.989 37004.9 1061.95
6903.6 354.652 420.647 -32660.8 15881.6
6906.41 412.375 399.755 43300.8 -2747.29
6909.22 432.239 467.459 -18881.9 2284.02
6912.03 557.762 471.189 -17566.9 7969.63
6914.84 423.567 477.637 60357.7 4863.33
6917.65 451.581 455.095 -28200.8 16721.4
6920.46 490.137 454.013 18007.2 6246.22
6923.28 420.322 455.181 28932.2 23104.7
6926.09 455.085 418.401 22374.6 6903.29
6928.9 379.797 422.217 -30597 4617.47
6931.71 431.768 401.715 22074.8 3882.55
6934.52 393.581 413.726 20169.8 11600.3
6937.33 415.827 383.197 -7443.79 3551.17
6940.14 340.182 410.317 -2072.55 2150.64
6942.95 474.941 418.004 15968.3 8784.93
6945.76 438.888 459.992 12459.1 15574.7
6948.57 466.147 432.75 18296.6 4622.69
6951.38 393.216 379.044 -16887.7 -9098.75
6954.18 277.77 363.076 -28705.2 -8787.81
6956.99 418.241 377.797 19229.4 -12287.3
6959.8 437.379 436.269 -27386.2 -4283.15
6962.61 453.188 420.951 -4692.64 -11571.1
6965.42 372.287 421.985 -2634.35 -12077.8
6968.23 440.48 361.952 -28906.5 -91.754
6971.03 273.09 383.895 31265.6 4331.16
6973.84 438.116 378.684 10634.4 19816.8
6976.65 424.846 427.136 17550.5 9490.29
6979.46 418.447 412.495 286.011 9219.89
6982.26 394.194 396.957 9823.2 4883.52
6985.07 378.229 378.754 4541.37 8159.95
6987.88 363.838 378.386 10115.3 -476.269
6990.68 393.09 371.048 -16085.5 -7917.34
6993.49 356.216 381.403 -17781.8 -934.648
6996.3 394.903 395.315 31063.4 16446.2
6999.1 434.826 418.301 36057.1 20715.3
7001.91 425.174 427.295 -4974.52 10196.8
7004.72 421.884 393.567 -492.252 12377.8
7007.52 333.642 357.43 42600.3 1764.58
7010.33 316.763 336.533 -36814.3 -5662.03
7013.13 359.192 359.287 -22772.1 -28091.9
7015.94 401.905 386.696 -24689.2 1203.44
7018.74 398.99 401.837 51071.7 -17872.4
7021.55 404.614 405.624 -79999.6 -6325.13
7024.35 413.267 427.32 9952.52 -26650.6
7027.16 464.08 419.299 -9904.88 12895.8
7029.96 380.552 424.765 38639.7 9474.01
7032.76 429.663 370.577 -312.849 12456
7035.57 301.516 403.947 -959.046 3544.37
7038.37 480.662 387.66 11905 -7139.59
7041.17 380.804 444.761 -32364.7 -18726.6
7043.98 472.818 425.527 -35720 -3466.85
7046.78 422.959 419.447 57684.1 11047.3
7049.58 362.564 401.039 11177.8 32167.5
7052.39 417.594 413.045 27640.5 4365.63
7055.19 458.975 441.857 -25721.5 13710.2
7057.99 449.002 435.795 39211.5 -7365.35
7060.79 399.409 387.935 -35586.1 12582.6
7063.6 315.395 365.235 34122.3 -5025.72
7066.4 380.9 375.242 -13613.3 14675
7069.2 429.431 362.417 23516 -7175.89
7072 276.921 391.777 -31430.3 334.631
7074.8 468.979 367.998 8918.22 6658.94
7077.6 358.095 419.9 42488.9 1370.94
7080.4 432.626 396.337 -47294.3 11685.7
7083.2 398.291 393.979 39862.4 -8915.75
7086 351.02 385.31 -19315.4 15453.1
7088.81 406.619 394.093 25812.3 -1947.2
7091.61 424.639 384.051 -12338.5 -11057.7
7094.41 320.894 409.015 -46647 1170.89
7097.21 481.511 441.975 62498.1 9711.05
7100 523.52 487.967 13282 20626.9
7102.8 458.87 447.308 -13899.4 3634.66
7105.6 359.533 419.505 11521.4 -9430.9
7108.4 440.111 376 -25914.7 187.671
7111.2 328.356 394.644 14956.3 21916.2
7114 415.465 378.426 76707 17731.7
7116.8 391.455 387.996 -38468.1 31548.2
7119.6 357.067 418.97 56405.6 1109.07
7122.4 508.39 407.795 -14610.3 17289.6
7125.19 357.929 435.896 10073.6 19601.7
7127.99 441.368 426.822 63341.7 27418.3
7130.79 481.17 440.351 8839.62 4592.31
7133.59 398.515 416.81 -58404.4 3092.19
7136.38 370.746 388.968 58841.3 4687.9
7139.18 397.641 395.622 13626.8 40964
7141.98 418.477 383.352 50423.9 25745.8
7144.77 333.938 329.331 13186.7 18048.2
7147.57 235.577 324.889 -9466.04 44799.2
7150.37 405.151 380.387 130677 6217.46
7153.16 500.432 420.199 -102559 25832.5
7155.96 355.015 375.732 49379.2 -28052.8
7158.75 271.749 339.17 -30979.1 14709.1
7161.55 390.746 393.359 25727.1 11771.8
7164.35 517.581 408.133 40567.3 22320.1
7167.14 316.071 408.97 665.968 27260.2
7169.94 393.257 354.113 40547.2 23114.8
7172.73 353.012 400.603 28131.1 19657.8
7175.52 455.541 383.184 -9704.91 4647.69
7178.32 341.001 386.268 -4483.13 3174.54
7181.11 362.262 394.24 23711.7 8052.68
7183.91 479.457 432.335 4929.49 15902
7186.7 455.285 453.309 19064.8 -5675.8
7189.5 425.186 425.467 -41021.7 1555.62
7192.29 395.93 416.745 26623.8 -5430.08
7195.08 429.118 422.55 -1892.33 27776.5
7197.87 442.602 404.11 58598.1 8819.12
7200.67 340.609 396.046 -30248.4 -5909.87
7203.46 404.926 358.559 -46079.3 -13059.6
7206.25 330.143 363.532 37149 -7744.86
7209.05 355.527 329.727 -14304.3 -1048.97
7211.84 303.511 357.251 -25991.6 445.466
7214.63 412.715 351.391 41632.3 16013
7217.42 337.947 361.341 32398.4 -5537.45
7220.21 333.362 377.718 -90643 21299.5
7223 461.843 383.672 122143 2505.67
7225.8 355.809 392.876 -23983.1 33170.9
7228.59 360.977 329.985 1352.55 -10691.3
7231.38 273.171 300.377 -9443.25 31678.5
7234.17 266.983 313.469 103126 28346
7236.96 400.253 347.35 -8644.94 7993.9
7239.75 374.816 382.465 -70499.5 324.206
7242.54 372.326 301.307 80117 -6868.04
7245.33 156.78 284.437 -30221.7 22771.8
7248.12 324.205 281.864 18420.2 -15221
7250.91 364.606 358.154 -33861.5 11607.6
7253.7 385.651 381.963 50264.2 -25697.8
7256.49 395.63 350.327 -93496.1 3128.44
7259.28 269.701 332.624 52617.2 -550.83
7262.06 332.541 253.773 39226.4 12544.9
7264.85 159.078 269.071 -54208.9 33132.8
7267.64 315.595 248.684 114381 -9478.75
7270.43 271.38 350.878 -88608.3 49291.9
7273.22 465.657 390.225 122103 -10394
7276.01 433.637 409.654 -64676.4 57427.7
7278.79 329.668 370.55 114857 19538.7
7281.58 348.345 323.066 8435.98 24660.2
7284.37 291.185 301.26 -49311.8 -399.187
7287.15 264.249 303.295 39678.3 1851.89
7289.94 354.451 304.645 15189.2 29324.1
7292.73 295.234 343.894 33104.8 24778.7
7295.51 381.998 326.335 26042.2 16005.7
7298.3 301.774 334.1 -11129.9 -1340.22
7301.09 318.527 332.247 -18933 11654.6
7303.87 376.441 332.336 65026.6 11182.2
7306.66 302.04 361.63 -12547.1 13559
7309.44 406.408 344.257 -11802.5 -6838.96
7312.23 324.322 370.369 3832.71 5868.97
7315.01 380.377 344.009 25576.7 -6450.33
7317.8 327.327 354.772 -48760.4 16716.7
7320.58 356.613 327.239 73333.7 -29521
7323.37 297.776 350.113 -113136 24114.2
7326.15 395.951 316.87 112145 -20678.4
7328.94 256.883 285.488 -61044.1 64038.5
7331.72 203.63 268.772 141014 -6497.73
7334.5 345.802 312.923 -99463.4 26015
7337.29 389.337 380.444 36494.3 -21339.3
7340.07 406.193 366.387 -1048.78 17567.9
7342.85 303.632 325.992 17258.1 -863.181
7345.64 268.15 281.492 -18798.9 16823.2
7348.42 272.694 282.365 52010.3 3089.99
7351.2 306.252 284.734 -23941.5 9460.72
7353.98 275.256 310.366 313.315 -26103.1
7356.77 349.591 373.815 -54681.3 -2431.11
7359.55 496.598 407.747 47074.6 6066.74
7362.33 377.051 364.649 25806.9 6533.29
7365.11 220.3 356.935 -53281.6 14667.2
7367.89 473.455 346.8 71476.3 -32924.2
7370.67 346.647 350.03 -116967 -4429.57
7373.46 229.988 285.852 32202.3 -17559.4
7376.24 280.923 340.984 32086.8 9415.41
7379.02 512.042 343.788 -36042.9 15405.9
7381.8 238.399 359.963 50173.9 -25456.8
7384.58 329.448 288.579 -90501.4 10339.6
7387.36 297.891 346.475 71346.4 -27395.3
7390.14 412.086 348.651 -63030.9 56637.5
7392.92 335.974 364.758 161597 -13989.3
7395.7 346.213 342.149 -140534 38688.7
7398.48 344.26 329.162 95003.1 -28657.3
7401.25 297.013 313.195 -40441.1 22458.1
7404.03 298.311 281.687 12812.3 4828.82
7406.81 249.737 293.555 42115.2 -53293.9
7409.59 332.617 271.049 -214809 14428.9
7412.37 230.793 260.149 215981 -31914.2
7415.15 217.037 234.485 -96913.8 78440.2
7417.92 255.624 277.835 116254 -9800.51
7420.7 360.845 286.543 -48741.7 26635.2
7423.48 243.159 316.354 12393.3 -16715.1
7426.26 345.059 311.555 -13796.9 19098.3
7429.03 346.448 344.53 58698.3 -16472.4
7431.81 342.084 337.763 -94318.8 66623.7
7434.59 324.758 343.677 235492 -8068.39
7437.36 364.188 324.848 -165378 40194.3
7440.14 285.597 300.553 50469.3 -12474.5
7442.92 251.875 281.488 77485.1 9611.11
7445.69 306.992 254.625 -99121.1 33036.2
7448.47 205.01 307.138 120744 -2315.92
7451.24 409.411 301.312 -28571.1 42305.1
7454.02 289.514 361.638 34741.9 8332.9
7456.79 385.989 330.637 18827.9 33275.1
7459.57 316.408 307.307 46255.6 11030.7
7462.34 219.526 302.617 -31991.5 -25893.5
7465.12 371.917 265.261 -91944.5 9095.79
7467.89 204.34 305.572 151223 -19298.2
7470.66 340.459 295.691 -117174 30855.5
7473.44 342.274 293.434 58516.6 -28938.2
7476.21 197.57 259.338 -28157.6 36142.2
7478.99 238.169 247.66 78067.7 2872.23
7481.76 307.241 276.296 -41293.4 62163.3
7484.53 283.478 300.203 149716 -36037.4
7487.3 309.892 315.806 -216535 83457.5
7490.08 354.048 344.769 317191 -14617.3
7492.85 370.368 325.969 -144509 62090.4
7495.62 253.492 330.262 13588.6 21964.4
7498.39 366.927 326.349 196813 -18812.6
7501.16 358.627 327.108 -266840 65555.3
7503.94 255.77 325.642 266692 -123763
7506.71 362.529 296.922 -371141 86221.8
7509.48 272.468 316.727 363114 -102845
7512.25 315.186 290.688 -300508 97214
7515.02 284.412 300.875 229035 -105544
7517.79 303.027 307.275 -245161 52654.8
7520.56 334.386 327.136 174090 -84173
7523.33 343.995 303.175 -181448 12435.8
7526.1 231.145 304.862 44665.6 -18687.2
7528.87 339.446 254.317 80721.2 -5053.88
7531.64 192.361 289.103 -140548 21305.4
7534.41 335.501 251.075 123744 -39971.3
7537.18 225.364 265.862 -103109 45449.3
7539.95 236.721 263.243 115713 -33846.7
7542.72 327.645 291.582 -114144 40794.9
7545.49 310.38 277.534 120816 -30905.2
7548.25 194.576 283.339 -99387.1 59594.6
7551.02 345.06 285.849 157355 -41524
7553.79 317.912 352.151 -182540 48794.9
7556.56 393.48 354.54 171570 -68672.9
7559.32 352.227 334.88 -195048 123456
7562.09 258.933 306.403 393848 -134768
7564.86 308.05 273.747 -603105 112897
7567.63 254.259 290.949 547950 -189858
7570.39 310.538 287.436 -514420 199574
7573.16 297.511 301.295 565192 -180395
7575.92 295.837 277.464 -591957 172580
7578.69 239.045 289.833 544504 -151530
7581.46 334.617 281.35 -407139 146844
7584.22 270.388 315.626 303168 -124367
7586.99 341.872 293.418 -269129 74063.8
7589.75 267.995 278.468 188152 -78028.5
7592.52 225.536 222.546 -153109 45188.3
7595.28 174.109 172.473 100522 -49567.3
7598.05 117.773 130.81 -96114.8 17099.4
7600.81 100.549 102.035 46891.3 -22345.4
7603.58 87.7812 91.4207 -17812.8 13741.4
7606.34 85.9317 78.901 12145.8 9165.93
7609.1 62.9902 99.3412 33164.7 -5992.01
7611.87 149.102 129.435 -63286.6 20568.9
7614.63 176.214 181.525 91828.5 -5443.53
7617.39 219.258 189.207 -44872.5 8873.71
7620.16 172.148 208.552 -20334.9 3725.99
7622.92 234.251 177.655 76385.4 32107.4
7625.68 126.565 166.779 40271.8 11612.1
7628.44 139.523 140.558 -81820.7 5449.43
7631.21 155.587 138.622 57897.2 9368.74
7633.97 120.757 127.803 52029.7 13055.4
7636.73 107.063 122.042 -70760.8 60833.4
7639.49 138.304 136.055 201231 -2422.84
7642.25 162.796 179.672 -137739 18677
7645.01 237.915 207.484 -7461.28 -20665.2
7647.77 221.741 222.941 83204.8 -12403.9
7650.53 209.167 181.414 -112955 18300.7
7653.29 113.335 185.672 84652.5 -53367.1
7656.05 234.513 189.047 -131799 43391.2
7658.81 219.292 225.717 177320 -9930.5
7661.57 223.346 207.335 -75312.6 16090.4
7664.33 179.367 220.12 -53736 2875.29
7667.09 257.647 213.706 137674 -30645.7
7669.85 204.104 236.826 -175875 19881.3
7672.61 248.729 232.799 97844.8 -21409
7675.37 245.564 249.994 13803.6 14808.2
7678.13 255.69 231.17 -67223.9 -5467.13
7680.89 192.256 260.967 37018.9 -14938.1
7683.64 334.954 275.075 -14609.4 16046.2
7686.4 298.015 261.257 25729.2 3899.01
7689.16 150.802 221.237 577.243 -2856.47
7691.92 214.896 189.539 -34875.8 -12921.1
7694.67 202.919 253.272 -4464.79 -6862.33
7697.43 342 245.688 18753.6 46334.5
7700.19 192.144 234.707 124715 -2577.32
7702.94 169.975 208.445 -151200 48877.5
7705.7 263.217 221.295 173118 -25941
7708.46 230.692 258.086 -99741 44606.7
7711.21 280.349 255.527 60442.9 12370.1
7713.97 255.541 266.411 76408.4 60616
7716.72 263.344 225.633 44996.6 41253.9
7719.48 158.014 191.086 2356.84 -43086.3
7722.23 151.9 174.123 -176612 -1048.88
7724.99 212.457 201.967 171109 -36532.7
7727.74 241.545 243.038 -104095 35536.1
7730.5 275.112 245.61 39593.9 -33531.6
7733.25 220.174 245.376 -36094 4469.5
7736.01 240.843 226.093 9908.58 -11671.5
7738.76 217.261 206.291 -8829.02 -43632
7741.51 160.769 226.577 -131976 -5216.16
7744.27 301.7 240.331 125156 -33769.1
7747.02 258.525 282.487 -94487.9 33660.1
7749.77 287.235 275.385 70312.3 -24278.5
7752.53 280.395 253.267 -48659.7 7655.86
7755.28 192.172 252.513 1315.04 -19827.4
7758.03 284.974 204.865 -12137.6 2578.3
7760.78 137.45 224.789 18557.5 39068.4
7763.53 251.944 205.245 110785 5111.55
7766.29 226.342 227.182 -114008 13026.8
7769.04 203.262 202.239 42303.3 -8393.48
7771.79 177.114 161.789 46524.3 34914.5
7774.54 104.991 168.333 15915.8 27356.9
7777.29 222.894 189.974 19630.6 -2788.81
7780.04 242.037 225.287 -43912.9 -36981.1
7782.79 210.929 186.926 -86661 -24684
7785.54 107.813 180.597 56522 -29920.4
7788.29 223.048 171.622 -59622.3 6760.93
7791.04 184.006 211.627 23383.1 33243.2
7793.79 227.827 209.067 135969 11041.7
7796.54 215.367 236.459 -126227 23109.5
7799.29 266.183 224.412 59586.4 3065.75
7802.04 191.687 239.659 75837.6 49880.6
7804.79 261.106 194.447 14217.8 44022.3
7807.53 130.549 205.296 42011.4 -17353.8
7810.28 224.232 176.626 -108291 -5875.69
7813.03 175.098 222.899 48652.2 -16455.8
7815.78 269.366 228.948 10271 -22580.4
7818.53 242.381 257.653 -126664 16825.1
7821.27 261.212 235.586 166869 -19283.3
7824.02 203.164 223.685 -98054.4 6442.73
7826.77 206.68 204.25 -49486.3 10564.5
7829.51 202.906 200.14 179234 3749.89
7832.26 190.833 181.988 -118498 69023.5
7835.01 152.226 206.395 146335 -1322.42
7837.75 276.126 211.9 -31803.6 42565.9
7840.5 207.348 247.089 13166.9 40137.3
7843.24 257.792 210.325 139049 15932.7
7845.99 165.834 197.851 -104417 26931.6
7848.73 169.926 184.025 46163.8 -58394.2
7851.48 216.313 223.109 -116929 -20800.1
7854.22 283.089 231.091 8364.98 -25994.9
7856.97 193.872 259.167 30579.3 -4899.28
7859.71 300.539 248.228 -53642.2 -11448.7
7862.45 250.272 275.927 -11283.3 4960.21
7865.2 276.97 250.444 79806.1 9792.45
7867.94 224.092 229.278 -39145.4 18889.8
7870.68 186.774 211.049 16008.6 15687.4
7873.43 222.281 233.375 70199 9998.95
7876.17 291.068 244.682 -56210.8 41142.5
7878.91 220.696 240.701 109439 -19536
7881.66 210.337 216.017 -111836 -6827.95
7884.4 217.018 189.243 -18086.8 -24977
7887.14 140.375 218.891 54992.4 18275.9
7889.88 299.279 213.722 17922.2 1326.31
7892.62 201.513 255.721 -68935.7 15706.9
7895.36 266.37 232.806 98134.1 2553.07
7898.11 230.536 239.322 -21539.2 31236.2
7900.85 221.06 219.574 17113.7 22805.3
7903.59 207.128 215.525 72841.6 1072.67
7906.33 218.389 229.333 -86737.3 34569.4
7909.07 262.483 246.144 117604 -29788.6
7911.81 257.56 250.585 -120233 69224.9
7914.55 231.712 228.702 210303 -32654.1
7917.29 196.833 221.8 -188033 24087.6
7920.03 236.854 203.046 49992.3 -38216.8
7922.76 175.45 193.603 23390.1 -16244.9
7925.5 168.504 180.4 -122117 -1016.92
7928.24 197.244 186.866 95676.3 -6717.35
7930.98 194.848 254.711 6288.87 44609.4
7933.72 372.04 263.137 31863.1 7938.89
7936.46 222.522 245.691 -14335.3 -9566.85
7939.19 142.512 165.72 -46228.3 -22144.2
7941.93 132.127 168.863 -5868.88 4920.75
7944.67 231.949 192.603 66859.5 -8824.31
7947.41 213.731 202.073 -87463.5 19101.2
7950.14 160.537 188.686 77907.7 -19394
7952.88 191.789 180.988 -48626.2 90292.1
7955.62 190.639 208.294 241595 16211.8
7958.35 242.453 203.595 -144333 24327.5
7961.09 177.693 236.487 -24279.2 -55681.8
7963.82 289.316 196.56 1566.98 -25476.9
7966.56 122.67 187.897 -53718.6 -21044.9
7969.29 151.705 136.367 -10983 -24863.9
7972.03 134.725 131.469 -9890.12 24476.3
7974.76 107.977 141.992 94301.9 1990.23
7977.5 183.275 160.428 -78441.1 7559.92
7980.23 190.034 183.843 6818.96 -48441.6
7982.97 178.22 172.659 -73702.7 45207.8
7985.7 149.723 174.64 202507 28953.1
7988.43 195.976 189.332 -41945.1 49699.9
7991.17 222.296 244.785 -11462.3 18310.6
7993.9 316.084 237.055 108339 14289.4
7996.63 172.786 236.394 -54008.8 7495.31
7999.37 220.313 205.239 -31844.6 -33969.1
8002.1 222.619 234.388 -16053.8 350.715
8004.83 260.233 247.621 48950.5 16817.4
8007.56 260.011 247.213 17555.6 28281.6
8010.29 221.396 246.684 18338.8 -14621.2
8013.03 258.645 213.415 -79758 -22438.4
8015.76 160.204 194.946 -5895.9 -20532.2
8018.49 165.988 171.654 24057.3 501.251
8021.22 188.768 167.425 -16657.6 -18265.4
8023.95 147.519 192.317 -62195.9 17687.3
8026.68 240.665 181.737 131915 4340.25
8029.41 157.027 163.168 -56698.7 -25900.3
8032.14 91.8113 134.392 -152917 -48571.5
8034.87 154.337 139.436 63901.7 -28445.4
8037.6 172.16 180.714 3679.52 37423.4
8040.33 215.646 210.842 44688.9 7661.5
8043.06 244.721 218.418 -25383.9 12140.2
8045.79 194.887 215.213 17115.5 14868.9
8048.51 206.03 199.807 52875.2 -2320.07
8051.24 198.506 201.869 -76950.9 45334.8
8053.97 201.07 204.312 160080 -42719.6
8056.7 213.36 198.67 -211288 34739.5
8059.43 181.579 196.573 155426 -80931.2
8062.15 194.779 177.687 -186932 51276.5
8064.88 156.702 159.313 185335 1477.05
8067.61 126.457 149.985 6027.82 61692.8
8070.34 166.796 152.832 -6284.72 18870.9
8073.06 165.243 175.531 56869.6 14843.9
8075.79 194.554 194.873 -6053.03 37967.7
8078.51 224.822 210.907 63086.4 20564.1
8081.24 213.345 195.886 4659.03 33001.8
8083.97 149.491 194.775 31259.8 42934.4
8086.69 221.488 197.684 92884.4 19182.3
8089.42 222.073 231.452 -66597.3 -840.589
8092.14 250.795 198.025 -28808.9 21195.2
8094.86 121.208 191.508 158992 -24548.1
8097.59 202.522 180.576 -203827 68902.6
8100.31 217.998 195.581 251543 9270.41
8103.04 166.223 171.538 -19904.7 99668.3
8105.76 130.392 165.159 67366.3 61601.7
8108.48 198.862 164.083 137344 60373.4
8111.21 162.996 168.267 -23589.7 3894.49
8113.93 142.945 145.806 -102070 -20651.3
8116.65 131.476 145.619 63706.3 32802.5
8119.38 162.437 200.433 136772 37284.2
8122.1 307.385 213.213 -88625.3 40038.8
8124.82 169.818 224.1 71970 -50477.3
8127.54 195.098 187.775 -134777 74760.8
8130.26 198.409 193.863 287089 -47627.8
8132.98 188.082 160.644 -295196 90438.9
8135.71 95.44 139.056 279423 -19807.6
8138.43 133.646 142.336 -43650.4 32549.3
8141.15 197.922 167.927 -138125 30622.3
8143.87 172.213 170.344 273642 -87936.5
8146.59 140.896 182.992 -399327 25964.5
8149.31 235.867 157.701 203578 3581.31
8152.03 96.3395 176.718 206493 50485.7
8154.75 197.946 160.097 -258614 30871.5
8157.47 186.004 181.806 144735 -26387.4
8160.19 161.467 147.782 34716.2 98554.5
8162.9 95.8763 135.35 116212 -5411.05
8165.62 148.706 120.295 -167161 15768
8168.34 116.301 176.338 98253.3 -115717
8171.06 264.008 191.015 -278243 34617
8173.78 192.736 197.275 283841 -85427.2
8176.49 135.08 151.405 -261879 144275
8179.21 126.398 116.306 410865 -140245
8181.93 87.4398 111.861 -569720 112295
8184.65 121.745 118.564 495739 -131303
8187.36 146.507 136.694 -319928 146747
8190.08 141.831 142.925 264431 -39530.3
8192.79 140.438 144.208 -63093.8 -9336.83
8195.51 150.357 129.818 -229348 79103.7
8198.23 98.6607 138.74 529753 -88467.5
8200.94 167.203 139.287 -565807 233048
8203.66 151.998 175.53 735199 -147815
8206.37 207.389 182.637 -612837 175701
8209.09 188.523 172.846 404742 -35558.6
8211.8 122.626 151.801 101419 56759.6
8214.52 144.255 132.186 -335882 19925.5
8217.23 129.678 148.698 294240 -90709.2
8219.94 172.159 151.051 -230485 103337
8222.66 151.314 145.011 246257 -98519.9
8225.37 111.561 114.631 -311332 30651.8
8228.08 81.0188 126.59 157030 -87184.1
8230.8 187.191 129.13 -107251 104496
8233.51 119.18 129.351 263709 -24429.6
8236.22 81.682 129.82 -229747 -34016.7
8238.93 188.598 133.618 -136012 -15850.4
8241.64 130.575 146.458 318208 -81995.1
8244.36 120.201 120.173 -428181 88420.4
8247.07 109.744 149.317 375234 -94908.3
8249.78 218.006 144.484 -231779 -6912.32
8252.49 105.703 162.859 -164193 -66189.2
8255.2 164.868 149.343 197403 3263.8
8257.91 177.459 151.571 -23419.4 43258.9
8260.62 112.386 149.591 -44207.4 30566.4
8263.33 158.928 121.831 159326 -86199.3
8266.04 94.18 136.187 -373716 54825.8
8268.75 155.453 132.257 378868 -44281.1
8271.46 147.137 147.75 -137995 9876.21
8274.17 140.661 172.157 -211244 -90514.8
8276.88 228.671 184.648 77695.2 8932.56
8279.58 184.612 167.188 160347 45148.8
8282.29 88.2798 177.866 -102596 32668.5
8285 260.705 180.333 40254.2 -17048.4
8287.71 192.014 212.473 11196.2 -61040
8290.42 184.7 158.436 -234570 -53253.2
8293.12 98.594 142.405 63614.7 21165.5
8295.83 143.92 149.508 234452 97099.7
8298.54 206.011 169.742 -6767.77 1237.1
8301.24 159.295 163.757 -223973 -21285.8
8303.95 125.965 138.483 166883 -8023.17
8306.66 130.187 145.338 33020.1 98679.6
8309.36 179.863 135.392 96135.3 -21187.3
8312.07 96.1271 134.559 -192717 -37244.6
8314.77 127.687 97.6235 -15151.7 -60043
8317.48 69.057 123.071 27740 -16898.4
8320.18 172.471 116.361 -63283.4 -32501.2
8322.89 107.555 123.277 -61960.3 -76912.3
8325.59 89.8058 121.179 -105493 -34022.9
8328.3 166.177 125.439 65384.6 11044.7
8331 120.334 134.842 73242.8 37198.5
8333.7 118.015 115.954 -27031.8 -35150.6
8336.41 109.514 136.22 -151663 -9245.99
8339.11 181.131 176.66 150956 5411.61
8341.81 239.336 183.673 16941 16548.2
8344.51 130.55 168.584 -118253 -23749.3
8347.22 135.865 115.619 30064.1 -46334.4
8349.92 80.4429 101.421 -50814.5 -28753.4
8352.62 87.9561 111.374 -65509.8 -32896.2
8355.32 165.723 133.431 17635.5 11933.4
8358.02 146.613 142.131 83674.4 71983.9
8360.72 114.058 158.405 114642 66948.2
8363.43 214.545 140.227 2528.35 15290.2
8366.13 92.0778 141.172 -71299.6 -26103.8
8368.83 116.895 98.2268 -9540.22 -7007.3
8371.53 85.708 126.031 59817.9 60996.9
8374.23 175.49 128.754 132713 68522.9
8376.93 125.064 147.198 13037.9 35634.1
8379.63 141.04 142.658 -38848.5 -6983.25
8382.32 161.87 151.718 4860.83 6955.79
8385.02 152.246 150.963 54855.1 6753.23
8387.72 138.775 126.878 -39456.2 44233
8390.42 89.6124 135.364 117300 -14858.3
8393.12 177.704 177.764 -122419 21317.1
8395.82 265.974 174.639 69070.1 846.572
8398.51 80.2393 139.664 55888.3 -8856.95
8401.21 72.779 41.3302 -151529 -33918.2
8403.91 -29.0277 37.5678 -6113.69 -57052.9
8406.61 68.9522 41.0755 -13515.6 28285.2
8409.3 83.3021 86.6261 104485 -10972
8412 107.624 126.061 -123885 7024.37
8414.7 187.258 137.781 40473.3 -32258.2
8417.39 118.461 121.185 -13362.7 -7249.63
8420.09 57.8354 55.052 -48859.5 -8800.05
8422.78 -11.1405 54.6323 35822.1 6378.64
8425.48 117.202 62.0503 32173.4 8870.18
8428.17 80.0891 113.187 -41384.9 -2092.81
8430.87 142.268 104.628 2933.09 -86429.2
8433.56 91.5275 94.6429 -220836 -60564.7
8436.26 50.1327 70.0484 36208.6 -88272.1
8438.95 68.485 66.9807 -80189.4 -5852.99
8441.64 82.3243 69.056 26421.8 -27593
8444.34 56.3587 69.4716 -29011.3 -726.338
8447.03 69.7317 63.8696 410.542 -10829.7
8449.72 65.5183 82.5931 -3888.32 -5961.84
8452.42 112.529 111.65 -14407.7 -10238.3
8455.11 156.904 131.852 -12418.7 -192.339
8457.8 126.122 108.066 26249.4 -6522.41
8460.49 41.1713 92.6016 -33397.9 -10134.2
8463.18 110.512 78.2608 -23254.1 -8425.63
8465.87 83.0996 112.974 31375.1 -14226.8
8468.57 145.31 82.7983 -50801.5 -10546.1
8471.26 19.9853 54.5253 -12211.9 -22854.9
8473.95 -1.7193 21.1896 -5551.18 -36166.4
8476.64 45.3029 4.47476 -90736.1 -58038.7
8479.33 -30.1594 40.8206 -77828.7 -60295.9
8482.02 107.318 56.3259 -12323 -23175.4
8484.71 91.8187 85.5678 20625.5 -5865.7
8487.4 57.5666 63.3778 -25899.6 1899.11
8490.09 40.748 50.9581 10971.4 -20471.9
8492.77 54.5597 41.7238 -46487.5 -5319.71
8495.46 29.8636 25.517 19556.9 -6601.56
8498.15 -7.87231 15.0981 7125.88 15983.7
8500.84 23.303 -5.3217 21268.4 -4326.21
8503.53 -31.3957 9.8022 -41372.9 672.388
8506.22 37.4994 7.6529 22121.7 12516.9
8508.9 16.8551 19.2206 56801.8 21963.3
8511.59 3.30741 14.1847 -13033.5 20145.1
8514.28 22.3915 37.1536 16666.9 4097.83
8516.96 85.7617 48.6543 8660.1 -16373.5
8519.65 37.8095 47.1528 -74447.4 -30134.5
8522.34 17.8873 19.4882 -24616.1 -35830.9
8525.02 2.76776 30.6751 -8429.06 -23003.4
8527.71 71.3704 51.3753 -35965 -7582.49
8530.39 79.9877 84.408 21646.6 -9912.05
8533.08 101.866 84.5015 -15417.7 -363.744
8535.76 71.651 76.504 -7320.12 18406.3
8538.45 55.995 46.1223 77956.8 40263.6
8541.13 10.7209 28.3735 50154.1 45820.4
8543.82 18.4046 37.5953 9350.31 28787.6
8546.5 83.6603 73.9061 26858.4 11165.7
8549.18 119.653 111.43 -2711.48 8715.62
8551.87 130.978 101.513 1999.96 -14284.6
8554.55 53.9071 75.1813 -42142.2 -8405.57
8557.23 40.6591 54.038 14925.5 -2930.21
8559.91 67.5479 66.5283 18426 20893.9
8562.6 91.378 89.159 29330.2 9751.95
8565.28 108.551 111.861 -18500.4 -6509.84
8567.96 135.655 130.865 -30359.3 -11514.5
8570.64 148.389 140.484 14316.3 -15591.5
8573.32 137.409 122.857 -30731.4 -12339.8
8576 82.7737 101.192 -20604.4 -20820.6
8578.68 83.3945 66.3191 -11126 -1050.88
8581.36 32.7892 95.4498 28577.7 6650.17
8584.05 170.166 89.7018 2498.73 5977.45
8586.73 66.1506 129.612 -13144.1 6051.98
8589.4 152.519 115.68 28801.3 3023.24
8592.08 128.371 121.505 -6587.47 14372.1
8594.76 83.6268 88.9783 20902.3 4543.12
8597.44 54.9369 99.3607 -685.484 6614.3
8600.12 159.518 99.7338 -373.949 -3448.62
8602.8 84.746 148.512 -9286.41 -7283.82
8605.48 201.271 119.972 -12191.1 -6823.43
8608.16 73.8995 126.222 1007.22 -3895.18
8610.83 103.497 97.1599 -501.663 1844.52
8613.51 114.084 120.502 5028.02 5144.33
8616.19 143.924 117.025 10906.6 9747.56
8618.86 93.0664 113.363 13308 3196.84
8621.54 103.099 102.314 -14624.1 -2475.11
8624.22 110.777 113.033 -6109.21 -6185.16
8626.89 125.222 91.982 2177.87 -2589.82
8629.57 39.9471 66.9494 -3838.13 -3415.79
8632.24 35.6793 74.0298 -8587.11 -6719.82
8634.92 146.463 89.0949 -7734.22 -4761.03
8637.59 85.1422 103.699 2038.24 -2632.21
8640.27 79.493 75.5035 -2200.66 -1122.01
8642.94 61.8754 61.6067 -3203.6 -3895.09
8645.62 43.4516 62.7873 -6281.01 -7020.83
8648.29 83.035 68.0899 -11577.9 -5912.94
8650.97 77.783 97.3682 120.056 -4903.07
8653.64 131.287 102.72 -3251.39 -4962.51
8656.31 99.0899 105.088 -11756.2 -8952.3
8658.99 84.8867 88.4975 -11849.3 -10054.4
8661.66 81.5158 79.7799 -6557.65 -6884
8664.33 72.9372 99.5759 -2245.04 -4451.49
8667 144.275 95.4745 -4551.79 -1419.29
8669.67 69.2118 89.3688 2538.96 -4697.97
8672.35 54.62 84.3224 -12081.1 -788.112
8675.02 129.135 72.9585 7177.77 -1947.87
8677.69 35.1201 59.6316 -940.317 14090.6
8680.36 14.6394 75.9738 36034.4 -1502.82
8683.03 178.162 92.0038 -39602.5 14990.5
8685.7 83.2102 139.484 48539.5 -8491.47
8688.37 157.081 140.221 -34411.4 6936.35
8691.04 180.37 164.298 6680.95 -13560.7
8693.71 155.444 163.386 -12951.7 1780.84
8696.38 154.344 157.997 11613.2 2160.24
8699.05 164.204 152.169 7819.17 967.52
8701.72 137.96 178.069 -16529.9 12238.8
8704.38 232.042 185.721 45427.1 -1680.74
8707.05 187.16 198.345 -33939.5 2599.24
8709.72 175.834 194.291 -3689.93 -12236.7
8712.39 219.878 189.058 919.19 4255.47
8715.06 171.461 186.694 15537.1 9924.02
8717.72 168.742 161.145 13315.7 -11922.4
8720.39 143.232 164.038 -64620.2 6000.43
8723.06 180.141 184.552 69305.7 -2031.72
8725.72 230.282 201.954 -10780.7 2922.82
8728.39 195.439 203.739 -49756.5 3091.51
8731.05 185.497 175.363 69811.8 -3456.01
8733.72 145.154 163.315 -30423.3 2639.22
8736.39 159.293 165.975 -31470.9 -12273.8
8739.05 193.477 163.778 25072.9 19876.2
8741.72 138.564 172.798 66026.6 -16598.2
8744.38 186.352 177.169 -140894 24073
8747.04 206.593 205.043 147086 -16308.3
8749.71 222.183 210.559 -55117.3 29051.2
8752.37 202.901 204.919 -4815.42 -19344.7
8755.04 189.673 207.476 1898.54 3547.69
8757.7 229.855 193.742 13559.9 -13062.7
8760.36 161.698 182.472 -54646.4 31484.9
8763.02 155.864 188.477 135541 -47927.8
8765.69 247.869 218.03 -224678 26469.6
8768.35 250.356 206.21 168546 -66626.1
8771.01 120.404 177.099 -143746 45490.1
8773.67 160.538 173.203 111670 -29873.4
8776.33 238.667 183.537 -57544.5 13041.9
8778.99 151.406 186.96 -14999.9 -2973.9
8781.65 170.807 160.623 63622.7 -11627.7
8784.32 159.655 130.371 -83505.9 15044.3
8786.98 60.6507 145.281 65016 -14914.7
8789.64 215.537 147.808 -26254.2 11423.6
8792.3 167.235 206.653 -4490.88 775.405
8794.95 237.185 205.021 33071.3 21659.4
8797.61 210.641 213.807 36397.7 -9579.87
8800.27 193.594 179.937 -98208.6 492.13
8802.93 135.577 162.525 63287.3 -34382.4
8805.59 158.403 139.313 -68225.9 3872.99
8808.25 123.959 150.311 16557.6 -1402.42
8810.91 168.571 154.274 47461.1 3342.86
8813.56 170.291 180.917 -53990 -5173.09
8816.22 203.891 172.025 -8990.29 -11316.5
8818.88 141.893 170.019 29030.9 -4274.77
8821.53 164.274 141.044 -32864.9 1767.26
8824.19 116.964 158.533 9135.78 4735.16
8826.85 194.361 199.037 37934.6 4900.63
8829.5 285.786 238.698 -32368.5 -78031.2
8832.16 235.946 197.658 -239660 7629.42
8834.81 71.2411 158.169 294916 -7170.67
8837.47 167.32 146.343 -76768.8 71058.8
8840.12 200.467 200.138 -4971.27 -54140.7
8842.78 232.628 179.345 -80682.2 -18175.6
8845.43 104.941 154.112 31126.7 -28468.3
8848.09 124.768 131.85 -35849.5 -9954.49
8850.74 165.843 147.116 -25140.7 -3945.48
8853.39 150.738 150.418 49153.8 -13514.8
8856.05 134.673 138.926 -64557.5 2509.26
8858.7 131.368 141.303 22931.5 5505.08
8861.35 157.869 135.555 58141.3 -13703.7
8864 117.429 143.219 -122184 -16356.7
8866.66 154.36 154.166 14972.4 -23533.6
8869.31 190.709 166.637 36610.8 -5246.24
8871.96 154.841 166.248 -67321.9 -5532.76
8874.61 153.193 138.718 14112.9 -21546
8877.26 108.12 135.428 -11428.9 -467.688
8879.91 144.97 106.003 -4087.05 9341.81
8882.56 64.9184 107.493 43541.4 11641.7
8885.21 112.59 141.784 -4529.12 28093.4
8887.86 247.842 173.121 45267.9 7778.75
8890.51 158.932 179.65 -17402.5 23799.6
8893.16 132.175 106.312 43533.6 15380.8
8895.81 27.8293 68.4041 20011.2 23629
8898.46 45.2075 74.2125 7342.26 2173.71
8901.11 149.601 183.565 -20832.4 -2467.68
8903.76 355.886 187.51 6087.09 -845.373
8906.41 57.0426 189.248 12209.2 8754.83
8909.05 154.817 104.388 7968.24 -5672.35
8911.7 101.306 120.96 -37194.4 -9413.46
8914.35 106.759 116.83 985.834 -7085.39
8916.99 142.425 132.684 14952.4 -23674.9
8919.64 148.868 140.876 -86962.9 -8640.3
8922.29 131.335 138.823 46089.6 -18051.4
8924.93 136.267 115.412 -13281 -13558.7
8927.58 78.6328 95.4477 -73484.7 -21239.3
8930.23 71.4431 71.472 23047.7 -4772.59
8932.87 64.3402 98.8988 36119.2 21901.1
8935.52 160.913 130.642 6536.37 10527
8938.16 166.673 140.956 -11074.5 4951.79
8940.8 95.2808 141.329 19393.5 -6736.54
8943.45 162.035 136.533 -28528.6 2697.58
8946.09 152.283 128.222 17227.8 -9813.52
8948.74 70.3482 103.113 -18139.8 -1283.25
8951.38 86.708 62.7109 -2937.79 -2333.62
8954.02 31.0764 52.846 14076.7 8943.13
8956.67 40.7535 63.6982 15690.5 1013.26
8959.31 119.265 115.163 -26727.4 -8272.81
8961.95 185.472 138.01 -13781.5 169.182
8964.59 109.294 107.991 41016.4 8116.43
8967.23 29.2074 62.8717 -2885.66 9154.09
8969.88 50.114 47.7872 -10668.5 -4279.39
8972.52 64.0401 65.0211 716.006 -4218.23
8975.16 80.9092 48.3164 -2702.17 -662.054
