wavelength spectrum_sum 3smoothed_sum spectrum_optimal 3smoothed_optimal
3402.13 27.9886 19.7313 -924.107 -468.041
3405.06 31.2052 0.478497 -480.015 -553.154
3407.98 -57.7583 19.8275 -255.339 -82.2538
3410.91 86.0356 78.3646 488.593 119.548
3413.84 206.817 103.793 125.39 194.256
3416.76 18.5274 64.3063 -31.2156 58.2275
3419.69 -32.4252 13.7361 80.5081 -67.0541
3422.62 55.1062 -26.5096 -250.455 -52.3742
3425.54 -102.21 -9.94045 12.824 -28.7715
3428.47 17.2821 -21.7995 151.316 49.53
3431.4 19.529 13.5544 -15.5503 -140.181
3434.32 3.85214 -57.836 -556.31 -264.414
3437.25 -196.889 -54.9779 -221.381 -238.118
3440.18 28.1034 -17.2248 63.3363 -308.862
3443.1 117.111 40.4293 -768.542 -358.542
3446.03 -23.9269 25.3012 -370.42 -253.926
3448.96 -17.2807 -0.849072 377.185 85.5813
3451.88 38.6604 33.3711 249.978 337.427
3454.81 78.7337 67.744 385.118 174.876
3457.74 85.838 31.9474 -110.467 152.733
3460.66 -68.7296 -35.8738 183.549 56.7576
3463.59 -124.73 -81.8112 97.1906 103.664
3466.52 -51.9742 -61.5007 30.2515 274.538
3469.44 -7.79806 -35.5624 696.171 388.827
3472.37 -46.9149 -41.1858 440.057 484.776
3475.3 -68.8446 -97.6857 318.099 398.498
3478.22 -177.297 -77.0098 437.337 219.07
3481.15 15.1127 -50.5314 -98.2277 240.386
3484.07 10.5905 -15.5185 382.05 278.454
3487 -72.2586 -28.6957 551.539 318.63
3489.93 -24.4189 -56.0887 22.3011 434.818
3492.85 -71.5885 -81.536 730.613 389.825
3495.78 -148.601 -124.378 416.561 510.985
3498.71 -152.945 -167.142 385.782 540.404
3501.63 -199.881 -98.5662 818.87 447.495
3504.56 57.1271 -69.4954 137.832 399.169
3507.48 -65.7324 -9.04305 240.805 454.135
3510.41 -18.5238 -19.3872 983.767 673.666
3513.33 26.0946 8.25901 796.427 589.029
3516.26 17.2062 45.8117 -13.1058 279.074
3519.19 94.1345 105.335 53.9019 4.6759
3522.11 204.664 142.314 -26.7685 110.494
3525.04 128.142 81.6785 304.348 218.366
3527.96 -87.7707 39.5075 377.519 589.64
3530.89 78.1511 51.9893 1087.05 904.144
3533.81 165.587 136.624 1247.86 905.104
3536.74 166.133 121.689 380.399 967.694
3539.67 33.3449 2.99673 1274.83 1095.99
3542.59 -190.488 -83.3719 1632.74 1332.73
3545.52 -92.9726 -107.649 1090.64 1280.18
3548.44 -39.4862 -95.219 1117.16 1350.62
3551.37 -153.198 -136.051 1844.07 1538.05
3554.29 -215.47 -161.464 1652.94 1317.09
3557.22 -115.725 -115.591 454.273 805.227
3560.14 -15.5785 -71.4631 308.473 462.255
3563.07 -83.0856 -34.4566 624.019 555.284
3565.99 -4.70579 -34.6799 733.36 320.37
3568.92 -16.2484 -32.6981 -396.269 -223.524
3571.84 -77.14 -57.2842 -1007.66 -529.869
3574.77 -78.4641 -49.9383 -185.675 -457.253
3577.69 5.78904 -59.1124 -178.42 -324.396
3580.62 -104.662 -79.8704 -609.094 -485.237
3583.54 -140.738 -76.9155 -668.197 -696.095
3586.47 14.6535 -43.8893 -810.993 -798.667
3589.39 -5.58345 -0.538504 -916.81 -759.753
3592.32 -10.6856 8.32567 -551.457 -430.34
3595.24 41.246 17.9276 177.247 -67.5963
3598.17 23.2224 16.1661 171.421 279.139
3601.09 -15.97 0.979487 488.75 125.216
3604.02 -4.3139 -4.01422 -284.524 -55.0562
3606.94 8.24125 21.7885 -369.394 -339.272
3609.87 61.4382 57.2175 -363.899 -555.449
3612.79 101.973 15.9423 -933.055 -763.82
3615.72 -115.584 43.3693 -994.507 -944.627
3618.64 143.719 -0.119367 -906.319 -724.055
3621.57 -28.4928 78.0872 -271.338 -556.683
3624.49 119.035 -6.55693 -492.393 -425.817
3627.41 -110.213 13.2377 -513.721 -272.896
3630.34 30.8911 -16.5445 187.426 21.7914
3633.26 29.6886 61.5855 391.669 -145.636
3636.19 124.177 79.3637 -1016 -711.541
3639.11 84.2256 80.78 -1510.29 -1193.02
3642.04 33.9374 38.4444 -1052.76 -1257.18
3644.96 -2.82993 6.08785 -1208.5 -1210.35
3647.88 -12.844 17.9318 -1369.79 -1206.03
3650.81 69.4693 1.05822 -1039.78 -1108.74
3653.73 -53.4507 -13.5674 -916.635 -1031.74
3656.66 -56.7208 18.166 -1138.81 -1225.63
3659.58 164.67 79.8191 -1621.46 -1547.14
3662.5 131.508 146.761 -1881.14 -1569.31
3665.43 144.104 103.342 -1205.33 -1538.76
3668.35 34.4122 86.9727 -1529.82 -1439.31
3671.28 82.4014 31.0503 -1582.78 -1295.69
3674.2 -23.6628 88.321 -774.482 -1042.22
3677.12 206.224 88.9339 -769.416 -820.578
3680.05 84.2403 184.697 -917.836 -714.805
3682.97 263.626 221.379 -457.163 -260.062
3685.9 316.271 167.476 594.812 431.196
3688.82 -77.4694 77.3523 1155.94 811.188
3691.74 -6.74466 13.0802 682.815 529.293
3694.67 123.455 87.9468 -250.875 -117.518
3697.59 147.13 55.6719 -784.494 -854.326
3700.51 -103.569 104.445 -1527.61 -1157.34
3703.44 269.775 28.6631 -1159.92 -1057.5
3706.36 -80.2166 77.9667 -484.981 -468.114
3709.28 44.3415 78.3985 240.56 51.6539
3712.21 271.071 131.625 399.383 186.642
3715.13 79.464 144.364 -80.0168 105.134
3718.05 82.5562 76.1715 -3.96397 -146.663
3720.98 66.4942 80.3683 -356.008 -491.144
3723.9 92.0545 74.1991 -1113.46 -888.364
3726.82 64.0487 153.253 -1195.62 -905.952
3729.75 303.657 143.479 -408.772 -757.511
3732.67 62.7316 223.05 -668.137 -728.39
3735.59 302.762 230.217 -1108.26 -1013.54
3738.51 325.159 287.345 -1264.23 -1362.98
3741.44 234.114 243.318 -1716.46 -1518.39
3744.36 170.681 255.247 -1574.47 -1610.31
3747.28 360.946 313.236 -1539.99 -1179.86
3750.21 408.082 351.527 -425.107 -570.333
3753.13 285.554 253.823 254.097 -150.513
3756.05 67.8338 192.343 -280.529 -348.084
3758.97 223.641 134.238 -1017.82 -845.326
3761.9 111.238 171.463 -1237.63 -976.188
3764.82 179.51 29.8437 -673.113 -396.935
3767.74 -201.217 74.9936 719.939 512.18
3770.66 246.688 34.4594 1489.71 1335.48
3773.59 57.9072 114.353 1796.79 1698.91
3776.51 38.4627 72.4135 1810.23 1904.86
3779.43 120.871 55.2448 2107.55 2021.58
3782.35 6.40112 63.1137 2146.97 2191.39
3785.28 62.0693 81.9603 2319.65 2241.53
3788.2 177.41 92.2742 2257.97 2021.34
3791.12 37.3427 92.6369 1486.41 1583.63
3794.04 63.1575 49.8529 1006.51 1131.71
3796.96 49.0586 64.668 902.214 1031.78
3799.89 81.7878 43.299 1186.62 1112.33
3802.81 -0.949308 32.7151 1248.16 1216.21
3805.73 17.307 26.3972 1213.85 1242.62
3808.65 62.8339 72.8296 1265.83 921.896
3811.57 138.348 201.552 286.001 315.334
3814.5 403.475 218.598 -605.83 -473.144
3817.42 113.971 229.955 -1099.6 -834.763
3820.34 172.418 177.408 -798.856 -884.835
3823.26 245.834 205.894 -756.045 -759.029
3826.18 199.43 196.996 -722.186 -918.714
3829.1 145.724 173.074 -1277.91 -1355.59
3832.03 174.068 171.517 -2066.68 -1990.46
3834.95 194.758 161.861 -2626.78 -2310.13
3837.87 116.758 126.661 -2236.92 -2089.93
3840.79 68.4675 35.8715 -1406.09 -1346.75
3843.71 -77.6114 -18.163 -397.234 -513.47
3846.63 -45.345 -36.6353 262.913 93.0333
3849.56 13.0504 -39.1857 413.421 312.509
3852.48 -85.2624 -6.13251 261.194 273.709
3855.4 53.8145 21.4903 146.513 271.756
3858.32 95.919 47.1917 407.561 282.533
3861.24 -8.15846 28.0752 293.524 294.609
3864.16 -3.53483 -53.3806 182.741 188.347
3867.08 -148.448 -46.7106 88.7742 129.407
3870 11.8516 -34.542 116.706 114.465
3872.92 32.971 -53.796 137.915 199.513
3875.84 -206.21 -45.5026 343.918 322.166
3878.77 36.7315 -74.3143 484.665 352.447
3881.69 -53.4641 -22.7573 228.758 240.674
3884.61 -51.5392 -12.5035 8.59997 217.498
3887.53 67.4928 -26.0932 415.135 496.552
3890.45 -94.2331 12.2031 1065.92 999.458
3893.37 63.3496 -21.6279 1517.32 1369.75
3896.29 -34.0002 83.1296 1526.01 1316.77
3899.21 220.039 64.2436 906.98 1147.23
3902.13 6.69174 107.201 1008.69 1012.83
3905.05 94.8733 -38.3614 1122.82 1290.96
3907.97 -216.649 -46.3923 1741.38 1547.33
3910.89 -17.4009 -85.7469 1777.8 1914.67
3913.81 -23.1906 19.961 2224.83 1997.86
3916.73 100.474 47.3174 1990.94 1848.02
3919.65 64.6685 36.8191 1328.28 1281.16
3922.57 -54.6856 67.9473 524.265 375.855
3925.49 193.859 90.8117 -724.976 -749.62
3928.41 133.262 151.809 -2048.15 -1859.25
3931.33 128.308 123.483 -2804.61 -2754.68
3934.25 108.878 85.0223 -3411.29 -3123.28
3937.17 17.8811 40.8284 -3153.93 -3236.18
3940.09 -4.27419 -10.7866 -3143.34 -2905.13
3943.01 -45.9667 29.5204 -2418.13 -2383.43
3945.93 138.802 50.7344 -1588.81 -1631.24
3948.85 59.3676 90.704 -886.788 -1098.09
3951.77 73.9422 90.3804 -818.676 -927.879
3954.69 137.832 103.891 -1078.17 -1276.02
3957.61 99.8986 79.991 -1931.21 -2207.66
3960.53 2.2428 70.6638 -3613.61 -3511.04
3963.45 109.85 89.1092 -4988.29 -4736.82
3966.37 155.235 91.3375 -5608.57 -5287.77
3969.29 8.92776 150.149 -5266.44 -5005.33
3972.21 286.283 179.984 -4140.98 -4045.66
3975.13 244.74 212.808 -2729.57 -2755.9
3978.05 107.401 157.484 -1397.16 -1693.29
3980.97 120.311 203.635 -953.132 -1037.37
3983.89 383.192 271.851 -761.807 -737.794
3986.81 312.051 251.222 -498.444 -635.851
3989.72 58.4219 181.611 -647.302 -688.773
3992.64 174.361 166.542 -920.572 -839.024
3995.56 266.842 201.3 -949.199 -1134.72
3998.48 162.695 333.43 -1534.38 -1737.45
4001.4 570.752 326.19 -2728.79 -2743.03
4004.32 245.123 352.706 -3965.93 -3641.54
4007.24 242.242 299.148 -4229.9 -4430.58
4010.16 410.079 328.114 -5095.9 -5062.42
4013.08 332.022 261.838 -5861.46 -5628.65
4015.99 43.4132 139.923 -5928.59 -5886.64
4018.91 44.3347 162.741 -5869.88 -5868.41
4021.83 400.476 235.466 -5806.76 -5687.63
4024.75 261.589 226.176 -5386.26 -5414.56
4027.67 16.4639 89.6188 -5050.68 -5113.4
4030.59 -9.19617 117.385 -4903.26 -4788.97
4033.51 344.888 223.283 -4412.98 -4382.59
4036.42 334.158 237.431 -3831.53 -3998.98
4039.34 33.247 252.856 -3752.42 -3804
4042.26 391.165 211.27 -3828.03 -3748.53
4045.18 209.397 205.162 -3665.12 -3767.51
4048.1 14.9241 167.428 -3809.39 -3779.45
4051.01 277.963 219.679 -3863.86 -3812.88
4053.93 366.149 390.983 -3765.39 -3884.51
4056.85 528.835 298.326 -4024.29 -4028.6
4059.77 -0.00757395 280.074 -4296.11 -4162.58
4062.69 311.394 208.352 -4167.32 -4081.11
4065.6 313.669 399.501 -3779.89 -3792.97
4068.52 573.44 424.734 -3431.7 -3328.34
4071.44 387.092 451.464 -2773.44 -2867.42
4074.36 393.861 445.834 -2397.14 -2447.03
4077.27 556.55 367.814 -2170.53 -2066.25
4080.19 153.03 322.548 -1631.09 -1692.74
4083.11 258.065 165.398 -1276.6 -1325.5
4086.03 85.0977 132.019 -1068.83 -1102.79
4088.94 52.8934 93.3857 -962.951 -1164.95
4091.86 142.166 165.886 -1463.06 -1441.96
4094.78 302.599 228.238 -1899.86 -1831.74
4097.7 239.95 220.488 -2132.3 -1967.84
4100.61 118.917 264.764 -1871.37 -1992.61
4103.53 435.425 243.375 -1974.15 -1785.44
4106.45 175.784 330.55 -1510.8 -1434.59
4109.36 380.44 254.672 -818.82 -962.534
4112.28 207.791 197.623 -557.982 -678.073
4115.2 4.6364 121.973 -657.417 -479.123
4118.12 153.493 133.815 -221.971 -425.277
4121.03 243.317 247.724 -396.443 -441.482
4123.95 346.362 315.883 -706.031 -590.018
4126.87 357.97 391.216 -667.58 -529.48
4129.78 469.315 380.046 -214.83 -212.212
4132.7 312.854 358.756 245.776 271.227
4135.62 294.1 341.762 782.736 762.96
4138.53 418.331 312.37 1260.37 1218.51
4141.45 224.68 382.329 1612.44 1667.55
4144.36 503.975 332.962 2129.86 2102.92
4147.28 270.231 402.041 2566.47 2536.61
4150.2 431.916 379.747 2913.5 2807.99
4153.11 437.093 296.856 2944 3099.62
4156.03 21.5601 262.498 3441.35 3248.26
4158.95 328.84 206.871 3359.43 3393.48
4161.86 270.212 403.389 3379.66 3195.16
4164.78 611.115 476.796 2846.4 3104.77
4167.69 549.062 496.735 3088.25 2658.19
4170.61 330.027 327.382 2039.92 2284.62
4173.53 103.056 245.667 1725.69 1500.73
4176.44 303.917 241.924 736.59 814.763
4179.36 318.799 333.214 -17.9943 -117.522
4182.27 376.925 334.263 -1071.16 -992.964
4185.19 307.064 334.366 -1889.73 -1943.83
4188.1 319.11 366.762 -2870.6 -2813.72
4191.02 474.113 329.206 -3680.81 -3903.33
4193.94 194.396 282.359 -5158.58 -5176.19
4196.85 178.568 190.941 -6689.17 -6522.96
4199.77 199.859 233.454 -7721.13 -7252.87
4202.68 321.936 247.921 -7348.32 -7153.25
4205.6 221.968 366.01 -6390.31 -6237.51
4208.51 554.124 399.876 -4973.89 -4880.38
4211.43 423.536 497.891 -3276.93 -3011.55
4214.34 516.012 365.154 -783.815 -697.073
4217.26 155.913 400.08 1969.53 2001.38
4220.17 528.315 375.659 4818.44 4662.93
4223.09 442.75 470.715 7200.83 7163.87
4226 441.08 422.146 9472.35 9303.27
4228.92 382.609 448.926 11236.6 10630.2
4231.83 523.088 468.968 11181.5 10900.7
4234.75 501.208 485.74 10283.9 10094.1
4237.66 432.926 404.913 8817.03 8772.62
4240.58 280.607 380.393 7216.94 7132.27
4243.49 427.646 322.943 5362.85 5257.36
4246.4 260.577 342.703 3192.29 3156.76
4249.32 339.885 307.729 915.134 1206.78
4252.23 322.726 376.681 -487.085 -85.1823
4255.15 467.432 342.241 -683.596 -704.333
4258.06 236.565 239.788 -942.318 -783.007
4260.98 15.3674 240.511 -723.106 -834.919
4263.89 469.601 261.313 -839.332 -850.651
4266.8 298.972 405.442 -989.514 -939.442
4269.72 447.752 409.163 -989.479 -843.3
4272.63 480.765 489.035 -550.906 -551.256
4275.55 538.587 471.417 -113.382 -184.232
4278.46 394.898 563.405 111.591 -9.49686
4281.37 756.73 506.514 -26.6997 -231.97
4284.29 367.913 457.168 -780.801 -513.712
4287.2 246.861 226.883 -733.635 -1010.65
4290.11 65.8745 278.255 -1517.51 -1360.07
4293.03 522.029 292.678 -1829.06 -2090.09
4295.94 290.132 322.021 -2923.69 -2858.8
4298.85 153.902 248.554 -3823.64 -3676.89
4301.77 301.627 226.425 -4283.35 -4350.93
4304.68 223.747 256.302 -4945.81 -4815.01
4307.59 243.534 277.533 -5215.89 -4903.84
4310.51 365.319 326.801 -4549.82 -4475.94
4313.42 371.549 296.443 -3662.11 -3566.78
4316.33 152.462 331.314 -2488.42 -2571.65
4319.25 469.929 319.4 -1564.44 -1754.38
4322.16 335.81 444.958 -1210.27 -1161.7
4325.07 529.134 526.535 -710.4 -256.896
4327.99 714.662 489.985 1149.98 682.319
4330.9 226.158 391.642 1607.37 1354.09
4333.81 234.106 259.702 1304.91 1207.14
4336.72 318.843 321.976 709.133 752.458
4339.64 412.979 267.771 243.329 340.385
4342.55 71.4914 256.312 68.693 70.1052
4345.46 284.465 252.537 -101.707 -44.3517
4348.37 401.655 357.257 -100.041 -356.249
4351.29 385.651 399.553 -866.999 -721.992
4354.2 411.352 317.646 -1198.93 -1190.68
4357.11 155.934 358.904 -1506.1 -1552.33
4360.02 509.426 346.207 -1951.96 -2085.83
4362.94 373.262 378.248 -2799.44 -3120.45
4365.85 252.055 377.894 -4609.96 -4608.83
4368.76 508.365 299.231 -6417.1 -6251.73
4371.67 137.274 332.067 -7728.12 -7713.41
4374.58 350.562 253.804 -8995 -8669.27
4377.49 273.575 418.979 -9284.67 -9534.64
4380.41 632.801 446.659 -10324.2 -10074.1
4383.32 433.601 576.552 -10613.3 -10353.3
4386.23 663.254 551.094 -10122.4 -9953.18
4389.14 556.427 583.594 -9123.84 -9203.53
4392.05 531.101 504.43 -8364.37 -8458.79
4394.96 425.762 433.791 -7888.15 -8158.58
4397.88 344.509 510.356 -8223.21 -7928.77
4400.79 760.798 444.283 -7674.95 -7811.84
4403.7 227.543 517.078 -7537.35 -7305.15
4406.61 562.894 485.929 -6703.14 -6710.78
4409.52 667.349 681.338 -5891.84 -5722.91
4412.43 813.771 610.898 -4573.75 -4962.51
4415.34 351.572 544.886 -4421.95 -4544.51
4418.25 469.313 458.298 -4637.83 -4573.6
4421.16 554.008 523.575 -4661.01 -5133.19
4424.08 547.405 537.171 -6100.74 -5797.89
4426.99 510.098 517.628 -6631.93 -6554.25
4429.9 495.381 670.73 -6930.07 -6799.55
4432.81 1006.71 730.82 -6836.65 -6953.71
4435.72 690.368 799.614 -7094.41 -6938.31
4438.63 701.763 721.065 -6883.87 -6924.48
4441.54 771.064 610.394 -6795.17 -6728.81
4444.45 358.354 582.757 -6507.4 -6645.6
4447.36 618.852 615.383 -6634.24 -6449.63
4450.27 868.944 758.501 -6207.26 -6041.79
4453.18 787.709 758.349 -5283.87 -5360.87
4456.09 618.394 644.582 -4591.48 -4304.88
4459 527.642 570.109 -3039.3 -3224.3
4461.91 564.29 654.186 -2042.13 -2365.47
4464.82 870.625 654.01 -2014.97 -2627.25
4467.73 527.116 659.378 -3824.65 -3388.21
4470.64 580.393 521.2 -4325 -4528.94
4473.55 456.09 530.003 -5437.19 -5469.99
4476.46 553.525 491.792 -6647.78 -6421.79
4479.37 465.763 457.931 -7180.41 -6816.16
4482.28 354.506 544.728 -6620.29 -6253.19
4485.19 813.916 611.191 -4958.86 -4889.53
4488.1 665.152 720.789 -3089.44 -2891.11
4491.01 683.301 636.686 -625.02 -1205.78
4493.92 561.606 599.327 97.1268 413.251
4496.82 553.074 649.2 1767.65 1277.85
4499.73 832.921 582.914 1968.79 2217.91
4502.64 362.748 518.998 2917.3 2351.85
4505.55 361.326 467.577 2169.45 2171.66
4508.46 678.657 634.303 1428.22 1148.12
4511.37 862.925 689.623 -153.318 107.462
4514.28 527.287 601.034 -952.521 -1191.62
4517.19 412.888 521.371 -2469.03 -2281.31
4520.1 623.937 567.365 -3422.38 -3359.31
4523 665.271 520.919 -4186.52 -4436.5
4525.91 273.549 548.052 -5700.6 -5196.01
4528.82 705.335 514.98 -5700.91 -5835.85
4531.73 566.057 422.783 -6106.06 -5850.04
4534.64 -3.04144 250.245 -5743.15 -5501.99
4537.55 187.72 226.33 -4656.76 -4489.77
4540.46 494.312 263.641 -3069.41 -3100.26
4543.36 108.89 462.551 -1574.62 -1494.93
4546.27 784.45 470.05 159.251 -323.138
4549.18 516.811 724.856 445.957 479.137
4552.09 873.307 597.938 832.203 632.107
4555 403.695 492.12 618.16 467.814
4557.9 199.358 421.616 -46.9203 63.6221
4560.81 661.795 486.65 -380.373 -796.2
4563.72 598.798 658.393 -1961.31 -1415.08
4566.63 714.585 629.379 -1903.55 -1952.41
4569.53 574.752 610.588 -1992.38 -1628.38
4572.44 542.428 606.172 -989.22 -1554.06
4575.35 701.335 520.924 -1680.59 -991.458
4578.26 319.009 569.864 -304.567 -661.399
4581.16 689.246 599.386 0.957309 359.755
4584.07 789.902 718.119 1382.87 613.041
4586.98 675.209 691.113 455.292 618.849
4589.88 608.227 834.161 18.3799 -39.5665
4592.79 1219.05 930.3 -592.372 -564.029
4595.7 963.625 907.461 -1118.1 -1145.92
4598.61 539.712 851.16 -1727.29 -1022.29
4601.51 1050.14 641.701 -221.499 -133.547
4604.42 335.248 641.62 1548.14 1170.29
4607.33 539.47 612.586 2184.23 2346.24
4610.23 963.039 796.76 3306.33 3201.05
4613.14 887.771 778.236 4112.58 3336.27
4616.05 483.897 754.707 2589.91 2272.71
4618.95 892.453 632.357 115.645 367.271
4621.86 520.721 736.973 -1603.74 -1184.86
4624.76 797.745 607.873 -2066.49 -1980.72
4627.67 505.153 742.792 -2271.94 -2525.82
4630.58 925.478 728.525 -3239.03 -3263.25
4633.48 754.942 743.004 -4278.79 -3983.78
4636.39 548.59 720.812 -4433.51 -4587.92
4639.29 858.905 739.452 -5051.45 -5139.59
4642.2 810.862 804.044 -5933.82 -5963.19
4645.11 742.364 668.135 -6904.31 -6976.26
4648.01 451.179 708.987 -8090.64 -8196.53
4650.92 933.418 755.394 -9594.64 -10098.1
4653.82 881.585 908.698 -12609 -12189.8
4656.73 911.09 942.19 -14365.7 -13286.3
4659.63 1033.9 1013.16 -12884.3 -12295.5
4662.54 1094.48 1042.27 -9636.58 -9934.39
4665.44 998.423 1015.83 -7282.33 -7503.03
4668.35 954.593 971.799 -5590.16 -6493.58
4671.25 962.38 900.772 -6608.24 -6246.42
4674.16 785.342 788.983 -6540.86 -6055.4
4677.06 619.226 745.818 -5017.09 -4715.44
4679.97 832.886 819.714 -2588.38 -2292.65
4682.87 1007.03 914.228 727.53 89.95
4685.78 902.768 889.072 2130.7 1853.45
4688.68 757.418 817.689 2702.11 1841.01
4691.59 792.881 874.738 690.207 19.3011
4694.49 1073.92 869.989 -3334.42 -2374.32
4697.4 743.169 852.984 -4478.74 -3933.57
4700.3 741.868 775.595 -3987.56 -3344.84
4703.21 841.749 809.539 -1568.21 -1540.53
4706.11 845 716.226 934.171 539.915
4709.01 461.929 601.49 2253.78 2552.35
4711.92 497.54 587.826 4469.09 4521.22
4714.82 804.01 777.371 6840.79 6217.71
4717.73 1030.56 950.227 7343.26 6244.16
4720.63 1016.11 877.146 4548.42 4885.13
4723.53 584.767 746.943 2763.71 3004.66
4726.44 639.953 705.513 1701.84 1241
4729.34 891.819 764.644 -742.541 -125.307
4732.24 762.16 774.049 -1335.22 -521.696
4735.15 668.17 715.091 512.673 302.945
4738.05 714.945 721.228 1731.38 1523.65
4740.96 780.569 749.783 2326.91 2253.09
4743.86 753.834 772.752 2700.99 3070.93
4746.76 783.853 702.439 4184.9 4844.56
4749.66 569.63 759.864 7647.78 6360.82
4752.57 926.108 686.968 7249.78 6517.45
4755.47 565.166 761.509 4654.78 4900.7
4758.37 793.252 698.341 2797.54 3168.48
4761.28 736.605 696.636 2053.11 2519.32
4764.18 560.052 630.38 2707.31 3098.15
4767.08 594.482 553.376 4534.04 4902.58
4769.98 505.595 573.754 7466.39 6356.04
4772.89 621.184 586.666 7067.69 6147.36
4775.79 633.22 544.063 3908 3521.17
4778.69 377.784 575.525 -412.177 167.437
4781.59 715.572 645.765 -2993.51 -2779.89
4784.5 843.939 702.915 -4933.97 -4957.67
4787.4 549.235 685.361 -6945.52 -5456.9
4790.3 662.909 637.802 -4491.22 -3792.75
4793.2 701.261 676.363 58.4911 -260.379
4796.1 664.919 675.762 3651.59 2628.49
4799.01 661.106 545.125 4175.38 3813.15
4801.91 309.35 699.617 3612.47 3104.31
4804.81 1128.4 678.105 1525.08 2000.2
4807.71 596.568 756.183 863.044 2003.03
4810.61 543.585 542.61 3620.97 3464.51
4813.51 487.677 421.433 5909.53 5391.8
4816.42 233.036 446.733 6644.91 6780.39
4819.32 619.486 453.221 7786.73 5469.93
4822.22 507.142 573.364 1978.15 2379.09
4825.12 593.463 607.138 -2627.61 -1788.06
4828.02 720.808 557.087 -4714.73 -3979.9
4830.92 356.991 519.138 -4597.36 -5117.81
4833.82 479.617 349.945 -6041.33 -4412.26
4836.72 213.228 412.597 -2598.07 -2829.11
4839.62 544.946 503.195 152.074 378.547
4842.53 751.411 500.87 3581.64 3234.7
4845.43 206.251 493.587 5970.38 4518.23
4848.33 523.099 314.482 4002.67 4841.96
4851.23 214.096 444.703 4552.82 3878.52
4854.13 596.915 290.615 3080.08 3549.45
4857.03 60.8339 412.426 3015.47 2741.72
4859.93 579.53 384.29 2129.63 2693.13
4862.83 512.507 497.144 2934.31 1738.39
4865.73 399.394 525.082 151.227 1368.93
4868.63 663.346 560.056 1021.25 1383.14
4871.53 617.428 626.171 2976.95 3022.74
4874.43 597.74 640.222 5070 3749.41
4877.33 705.499 735.821 3201.26 2685.8
4880.23 904.224 726.668 -213.876 297.065
4883.13 570.282 715.932 -2096.19 -381.155
4886.03 673.288 736.617 1166.6 27.2467
4888.93 966.282 808.934 1011.33 161.291
4891.83 787.232 913.277 -1694.06 -889.977
4894.72 986.316 822.377 -1987.2 -2169.1
4897.62 693.583 771.738 -2826.04 -2795.5
4900.52 635.315 730.219 -3573.26 -3013.65
4903.42 861.759 860.882 -2641.67 -3865.68
4906.32 1085.57 991.598 -5382.1 -3242.55
4909.22 1027.46 1057.65 -1703.89 -784.691
4912.12 1059.92 1068.64 4731.92 1459.96
4915.02 1118.55 1004.91 1351.84 750.256
4917.92 836.264 1047.74 -3832.99 -1705.39
4920.81 1188.42 1048.52 -2635.02 -2094.83
4923.71 1120.88 1135.07 183.533 -608.141
4926.61 1095.91 1172.28 627.067 -867.653
4929.51 1300.04 1128.62 -3413.56 -2439.14
4932.41 989.906 1150.14 -4530.92 -3251.25
4935.31 1160.49 1122.24 -1809.27 -1371.47
4938.2 1216.32 1141.19 2225.77 1388.49
4941.1 1046.78 1133.33 3748.96 3340.37
4944 1136.9 1066.25 4046.39 3086.18
4946.9 1015.08 1016.22 1463.18 3863.29
4949.8 896.69 1069.27 6080.31 7339.3
4952.69 1296.05 1127.35 14474.4 11100.8
4955.59 1189.32 1174.91 12747.7 11058.3
4958.49 1039.36 1098.85 5952.64 7568.58
4961.39 1067.86 1088.06 4005.36 3612.31
4964.28 1156.96 1079.19 878.914 3388.24
4967.18 1012.75 1150.18 5280.45 2722.92
4970.08 1280.84 1136.89 2009.41 3686.63
4972.97 1117.08 1199.36 3770.02 3340.37
4975.87 1200.18 1074.95 4241.69 2603.07
4978.77 907.589 1053.54 -202.5 2424.35
4981.67 1052.86 1015.59 3233.85 -4411.6
4984.56 1086.32 1064.71 -16266.2 -7069.05
4987.46 1054.94 1064.85 -8174.84 -9027.9
4990.36 1053.28 1005.16 -2642.7 -1724.56
4993.25 907.272 891.612 5643.85 4003.79
4996.15 714.287 846.984 9010.23 5768.18
4999.05 919.394 927.75 2650.45 2833.81
5001.94 1149.57 947.372 -3159.24 -814.654
5004.84 773.151 958.204 -1935.16 -252.414
5007.73 951.893 784.972 4337.17 4410.13
5010.63 629.871 900.839 10828.4 6522.45
5013.53 1120.75 893.743 4401.8 6576.97
5016.42 930.605 826.738 4500.72 3901.95
5019.32 428.857 790.698 2803.33 3672.55
5022.21 1012.63 640.67 3713.59 -481.22
5025.11 480.522 775.342 -7960.58 -3805.92
5028 832.874 797.819 -7170.77 -9018
5030.9 1080.06 819.745 -11922.6 -8158.89
5033.79 546.301 830.237 -5383.25 -9365.22
5036.69 864.348 804.726 -10789.8 -4046.95
5039.58 1003.53 869.255 4032.17 3215.28
5042.48 739.885 896.405 16403.4 8967.62
5045.38 945.801 823.854 6467.26 8594.42
5048.27 785.877 870.265 2912.56 3237.65
5051.16 879.117 702.269 333.13 -856.068
5054.06 441.815 777.324 -5813.9 -5137.04
5056.95 1011.04 800.944 -9930.36 -9812.44
5059.85 949.977 983.59 -13693.1 -11524.6
5062.74 989.754 949.297 -10950.4 -12542.6
5065.64 908.16 855.84 -12984.2 -8163.86
5068.53 669.606 889.895 -556.94 -4775.58
5071.43 1091.92 852.768 -785.565 2052.31
5074.32 796.778 872.324 7499.43 10180.6
5077.21 728.276 822.937 23828.1 12580.7
5080.11 943.758 904.289 6414.72 11585.7
5083 1040.83 1041.87 4514.24 2858.46
5085.9 1141.01 1028.65 -2353.58 -3505.28
5088.79 904.1 936.668 -12676.5 -7891.86
5091.68 764.896 818.613 -8645.51 -9067.12
5094.58 786.843 839.148 -5879.35 -2010.98
5097.47 965.704 962.184 8491.91 5066.36
5100.36 1134 986.962 12586.5 7975.77
5103.26 861.176 977.374 2848.86 7835.77
5106.15 936.943 998.398 8071.94 5537.32
5109.04 1197.07 968.36 5691.16 10617.5
5111.94 771.063 918.582 18089.4 9799.89
5114.83 787.608 874.552 5619.11 11830.3
5117.72 1064.98 870.703 11782.3 6927.01
5120.61 759.515 896.61 3379.62 4755.45
5123.51 865.33 834.593 -895.548 3301.18
5126.4 878.933 844.821 7419.46 1875.67
5129.29 790.2 788.474 -896.914 7375.48
5132.18 696.289 734.287 15603.9 10570.2
5135.08 716.373 804.728 17003.6 18894.5
5137.97 1001.52 993.361 24075.9 15828.5
5140.86 1262.19 1016.63 6405.83 11661.1
5143.75 786.174 974.115 4501.6 7650.52
5146.64 873.984 823.67 12044.1 8525.06
5149.54 810.852 794.24 9029.43 9376.82
5152.43 697.883 764.354 7056.88 6114.84
5155.32 784.325 813.746 2258.2 8423.11
5158.21 959.03 741.494 15954.2 12034.5
5161.1 481.126 793.452 17891.1 15167.1
5163.99 940.201 686.368 11656 12495.5
5166.89 637.777 699.245 7939.54 10084.4
5169.78 519.758 588.819 10657.8 11543.8
5172.67 608.922 665.723 16034.1 10998.8
5175.56 868.487 607.256 6304.41 11181.9
5178.45 344.36 657.298 11207.1 9842.17
5181.34 759.046 544.992 12015 11272.2
5184.23 531.571 634.661 10594.6 6739.35
5187.12 613.366 764.245 -2391.46 3548.13
5190.01 1147.8 823.648 2441.29 1091.81
5192.9 709.778 853.549 3225.59 3619.09
5195.79 703.069 778.103 5190.39 2372.4
5198.68 921.462 839.909 -1298.78 3167.57
5201.57 895.196 753.331 5611.1 2111.6
5204.46 443.334 748.681 2022.49 2674.5
5207.35 907.513 772.597 389.913 467.053
5210.24 966.944 925.166 -1011.24 -607.219
5213.13 901.041 890.347 -1200.33 -816.197
5216.02 803.055 824.719 -237.02 -2067.87
5218.91 770.061 826.302 -4766.28 5947.79
5221.8 905.79 751.31 22846.7 9145.3
5224.69 578.078 816.59 9355.52 14164.1
5227.58 965.901 735.418 10290.2 7639.55
5230.47 662.275 961.262 3272.91 7988.5
5233.36 1255.61 913.185 10402.4 4008.06
5236.25 821.667 1039.46 -1651.1 2654.98
5239.14 1041.1 939.99 -786.331 -483.188
5242.03 957.207 910.997 987.862 3232.19
5244.92 734.69 869.859 9495.03 -2514.19
5247.8 917.68 807.624 -18025.5 -5988.12
5250.69 770.503 862.505 -9433.92 -7659.31
5253.58 899.332 817.678 4481.44 -2336.31
5256.47 783.199 898.101 -2056.44 1711.48
5259.36 1011.77 875.693 2709.45 1243.51
5262.25 832.108 920.77 3077.53 6084.38
5265.14 918.431 898.753 12466.2 6178.65
5268.02 945.721 860.493 2992.26 6266.28
5270.91 717.327 847.986 3340.42 666.848
5273.8 880.911 839.653 -4332.14 -1282.58
5276.69 920.72 883.127 -2856.01 -3136.36
5279.57 847.751 884.632 -2220.93 -1006.6
5282.46 885.424 930.041 2057.15 -212.773
5285.35 1056.95 960.424 -474.54 407.94
5288.24 938.9 1018.57 -358.788 -994.18
5291.12 1059.87 969.493 -2149.21 1192.42
5294.01 909.706 950.895 6085.26 3666.91
5296.9 883.104 919.199 7064.69 5744.5
5299.79 964.787 861.381 4083.56 4608.82
5302.67 736.253 801.222 2678.22 3529.06
5305.56 702.625 755.343 3825.41 2287.84
5308.45 827.151 865.448 359.896 889.137
5311.33 1066.57 1003.36 -1517.9 -735.831
5314.22 1116.36 1117.57 -1049.49 1228.07
5317.11 1169.79 1025.76 6251.6 4230.25
5319.99 791.128 930.572 7488.64 5536.89
5322.88 830.803 852.656 2870.44 5296.18
5325.76 936.037 850.139 5529.46 3212.97
5328.65 783.576 929.064 1239 4039.42
5331.54 1067.58 863.355 5349.79 4413.04
5334.42 738.909 910.688 6650.32 5900.69
5337.31 925.578 812.475 5701.95 4819.9
5340.19 772.937 842.519 2107.43 2530.53
5343.08 829.042 863.88 -217.808 1714.99
5345.96 989.66 961.394 3255.35 867.463
5348.85 1065.48 890.669 -435.151 1666.17
5351.74 616.866 840.857 2178.32 1483.75
5354.62 840.224 780.256 2708.09 4019.53
5357.51 883.678 877.312 7172.19 2898.7
5360.39 908.035 832.173 -1184.18 2258.67
5363.28 704.805 890.937 788.02 439.978
5366.16 1059.97 869.443 1716.1 1687.48
5369.04 843.554 951.097 2558.31 2654.06
5371.93 949.767 894.997 3687.78 1059.77
5374.81 891.669 946.586 -3066.78 -1680.82
5377.7 998.322 938.692 -5663.45 -90.2843
5380.58 926.086 1016.22 8459.38 6082.32
5383.47 1124.26 876.905 15451 7601.92
5386.35 580.373 879.841 -1104.64 1493.41
5389.23 934.892 793.196 -9866.16 -2069.47
5392.12 864.323 1011.89 4762.39 3459.93
5395 1236.46 894.645 15483.5 7951.07
5397.89 583.147 914.068 3607.27 5934.13
5400.77 922.593 899.981 -1288.43 1383.42
5403.65 1194.2 1113.42 1831.42 1868.8
5406.54 1223.45 1060.61 5063.4 6213.32
5409.42 764.186 927.606 11745.1 7655.71
5412.3 795.179 948.189 6158.6 4754.14
5415.19 1285.2 1056.97 -3641.31 1822.33
5418.07 1090.53 1064.07 2949.71 808.948
5420.95 816.473 814.128 3118.45 4819.37
5423.83 535.377 825.389 8389.95 2015.4
5426.72 1124.32 817.151 -5462.21 -1330.53
5429.6 791.758 1018.68 -6919.34 914.532
5432.48 1139.95 960.336 15125.1 2090.53
5435.37 949.301 1081.35 -1934.21 5482.71
5438.25 1154.79 980.673 3257.22 1426.61
5441.13 837.925 922.004 2956.84 4747.37
5444.01 773.294 846.764 8028.04 10340.6
5446.89 929.072 874.123 20036.8 11710.2
5449.78 920.003 897.347 7065.81 11545.9
5452.66 842.964 917.014 7535.1 7296.67
5455.54 988.074 1042.06 7289.11 8561.2
5458.42 1295.15 1111.15 10859.4 4359.09
5461.3 1050.23 1105.19 -5071.24 7168.47
5464.18 970.184 874.501 15717.2 10086.9
5467.06 603.089 766.529 19614.6 6895.91
5469.95 726.313 783.532 -14644.1 2311.23
5472.83 1021.19 840.316 1963.2 -4280.39
5475.71 773.441 934.308 -160.25 1778.49
5478.59 1008.29 904.716 3532.53 7105.81
5481.47 932.418 1051.28 17945.1 9274.98
5484.35 1213.15 1031.07 6347.28 3749.51
5487.23 947.656 1092.79 -13043.9 -11303.2
5490.11 1117.55 998.715 -27213.1 -10039.2
5492.99 930.935 1009.93 10139.4 -6313.33
5495.87 981.3 937.96 -1866.31 2808.49
5498.75 901.645 997.255 152.384 678.736
5501.63 1108.82 1025.27 3750.13 -1916.97
5504.51 1065.35 1128.92 -9653.42 742.776
5507.39 1212.58 1092.23 8131.62 2106.78
5510.27 998.769 1087.14 7842.14 10025.4
5513.15 1050.07 942.966 14102.4 14945.5
5516.03 780.053 945.81 22891.9 11420.6
5518.91 1007.3 874.913 -2732.54 1472.52
5521.79 837.382 907.158 -15741.8 7732.01
5524.67 876.789 853.708 41670.4 11616.1
5527.55 846.953 994.583 8919.85 14123.8
5530.43 1260.01 1093.09 -8218.71 300.257
5533.3 1172.3 1095.64 199.633 -19975.2
5536.18 854.614 1010.11 -51906.6 -24844.9
5539.06 1003.41 860.569 -22827.8 -19115
5541.94 723.68 875.021 17389.3 -8035.12
5544.82 897.97 849.333 -18666.9 5763.88
5547.7 926.349 931.464 18569.2 -1450.4
5550.58 970.074 1012.95 -4253.52 6701.77
5553.45 1142.41 1018.4 5789.62 30342.5
5556.33 942.707 995.24 89491.5 22054.2
5559.21 900.601 909.471 -29118.5 -10483.5
5562.09 885.104 839.741 -91823.6 -23119.6
5564.97 733.518 859.573 51583.2 5500.88
5567.84 960.096 823.972 56743.1 28383.5
5570.72 778.303 892.517 -23175.7 19245.1
5573.6 939.154 901.656 24168 23791.5
5576.48 987.511 911.806 70382.3 47836.3
5579.35 808.754 790.493 48958.5 52298.5
5582.23 575.215 708.629 37554.7 47694.8
5585.11 741.919 812.558 56571.1 51046.2
5587.98 1120.54 881.785 59012.8 37560.7
5590.86 782.895 966.18 -2901.65 343.378
5593.74 995.105 784.47 -55081 -21151
5596.61 575.41 768.415 -5470.42 -17754
5599.49 734.729 753.717 7289.39 19593.7
5602.37 951.011 915.674 56962.2 53741.5
5605.24 1061.28 1077.99 96972.9 57528.2
5608.12 1221.68 1209.37 18649.6 12689.8
5610.99 1345.13 1244.24 -77553.2 1196.84
5613.87 1165.92 1209.8 62494.1 13786
5616.75 1118.36 1158.25 56417 17893.2
5619.62 1190.47 1168 -65231.4 -5431.53
5622.5 1195.17 1085.06 -7480.18 4926.25
5625.37 869.557 1174.5 87490.3 45044.6
5628.25 1458.78 1043.97 55123.8 23351.5
5631.12 803.555 1000.57 -72559.7 -36848.7
5634 739.379 939.204 -93110.2 -29371.7
5636.87 1274.68 1017.77 77554.8 6838.16
5639.75 1039.24 1174.78 36069.9 30642.4
5642.62 1210.42 1160.19 -21697.4 25343.1
5645.5 1230.9 1121.05 61656.8 33783.3
5648.37 921.831 921.291 61390.5 36254.1
5651.25 611.14 906.615 -14284.8 -1290.49
5654.12 1186.88 875.12 -50977.1 -29137.7
5656.99 827.346 881.716 -22151.1 -17431.5
5659.87 630.926 712.341 20833.7 10332.4
5662.74 678.751 773.462 32314.6 11081.1
5665.62 1010.71 862.406 -19905.1 3724.03
5668.49 897.758 997.176 -1237.41 3863.49
5671.36 1083.06 1019.64 32733 7293.95
5674.24 1078.09 1072.85 -9613.75 4041.63
5677.11 1057.42 1025.52 -10994.4 -5588
5679.98 941.057 970.179 3844.13 4226.51
5682.86 912.065 905.451 19829.8 17716
5685.73 863.23 869.937 29474 13618.7
5688.6 834.516 919.474 -8447.59 -6067.76
5691.48 1060.68 868.455 -39229.7 -17409.8
5694.35 710.174 1035.71 -4552.06 -21620.3
5697.22 1336.27 946.56 -21079.2 6073.67
5700.09 793.233 1084.84 43852.3 22750.8
5702.97 1125 964.458 45479.2 26195.1
5705.84 975.138 1053.63 -10746.3 3063.71
5708.71 1060.74 1053.93 -25541.8 -8750.51
5711.58 1125.91 1063.19 10036.6 -8731.95
5714.46 1002.91 1024.01 -10690.6 1010.46
5717.33 943.198 1098.61 3685.39 4154.92
5720.2 1349.71 1043.52 19470 12807.9
5723.07 837.656 1134.45 15268.2 9256.94
5725.94 1215.98 889.779 -6967.35 5214.92
5728.81 615.698 985.584 7343.91 21578.3
5731.68 1125.07 922.67 64358.3 33708.1
5734.56 1027.24 1027.75 29422 22471.4
5737.43 930.946 899.774 -26366 -1990.47
5740.3 741.135 802.876 -9027.41 -46.7782
5743.17 736.546 894.258 35253.1 11513.1
5746.04 1205.09 974.144 8313.68 12399.1
5748.91 980.793 1043.81 -6369.52 15518
5751.78 945.538 978.992 44609.9 15492.1
5754.65 1010.65 942.615 8235.87 2291.42
5757.52 871.661 859.757 -45971.5 -11935.6
5760.39 696.966 849.339 1928.76 -14480.9
5763.26 979.391 891.15 600.165 -402.119
5766.13 997.092 1048.99 -3735.28 6229.18
5769 1170.48 999.886 21822.7 1592.73
5771.87 832.082 1051.09 -13309.2 -5084.2
5774.74 1150.72 987.934 -23766.1 -14594.9
5777.61 981.005 1112.09 -6709.32 -3314.45
5780.48 1204.54 964.708 20532.1 10134.7
5783.35 708.573 1011.5 16581.3 5577.67
5786.22 1121.39 918.334 -20380.3 -2340.78
5789.09 925.044 1008.98 -3223.27 80.9995
5791.96 980.511 945.48 23846.6 7442.53
5794.82 930.886 829.895 1704.28 9723.06
5797.69 578.288 815.327 3618.32 10197.4
5800.56 936.806 797.142 25269.5 19673.5
5803.43 876.333 978.353 30132.6 17868
5806.3 1121.92 927.388 -1798.09 7012.43
5809.17 783.912 918.654 -7297.21 5655.65
5812.03 850.13 890.353 26062.3 12550.2
5814.9 1037.02 946.884 18885.5 14172.3
5817.77 953.506 900.067 -2430.92 2042.18
5820.64 709.678 895.643 -10328.1 -7117.32
5823.5 1023.75 875.79 -8592.97 -12623.2
5826.37 893.945 1058.04 -18948.5 -7839.02
5829.24 1256.44 1058.36 4024.44 -4918.47
5832.11 1024.7 1090.88 168.688 -3098.82
5834.97 991.512 1003.38 -13489.6 2057.86
5837.84 993.94 1028.5 19494.5 4132.85
5840.71 1100.04 945.062 6393.64 12205.3
5843.57 741.205 885.661 10727.9 12554.2
5846.44 815.736 770.696 20541.2 12284.3
5849.31 755.145 784.961 5583.87 6110.59
5852.17 784.001 875.916 -7793.34 2353.06
5855.04 1088.6 958.291 9268.66 7521.97
5857.91 1002.27 933.777 21090.6 12721.9
5860.77 710.46 957.773 7806.52 15312.3
5863.64 1160.59 921.736 17039.8 9152.18
5866.5 894.159 1069.83 2610.21 4368.45
5869.37 1154.73 931.321 -6544.66 -2743.68
5872.24 745.078 861.668 -4296.6 -312.61
5875.1 685.198 837.442 9903.43 4702.29
5877.97 1082.05 866.931 8500.05 7370.93
5880.83 833.546 891.805 3709.31 1769.54
5883.7 759.819 970.403 -6900.74 4252
5886.56 1317.85 963.196 15947.4 5843.65
5889.43 811.923 955.292 8484.25 8371.72
5892.29 736.109 939.853 683.468 7094.64
5895.16 1271.53 967.144 12116.2 5324.68
5898.02 893.797 964.063 3174.37 6593.97
5900.88 726.867 753.311 4491.33 1907.95
5903.75 639.27 803.113 -1941.84 3518.01
5906.61 1043.2 818.541 8004.53 1381.62
5909.48 773.15 786.714 -1917.84 2689.71
5912.34 543.789 720.307 1982.42 1543.93
5915.2 843.982 747.001 4567.2 1217.9
5918.07 853.23 807.53 -2895.92 -399.813
5920.93 725.376 790.666 -2870.72 -2971.96
5923.79 793.392 812.075 -3149.23 -3710.54
5926.66 917.458 933.791 -5111.66 -1086.11
5929.52 1090.52 909.506 5002.57 -844.733
5932.38 720.539 928.762 -2425.11 1626.23
5935.25 975.224 877.712 2301.24 5438.84
5938.11 937.372 1001.09 16440.4 5123.93
5940.97 1090.69 1027.94 -3369.84 7094.55
5943.83 1055.78 921.286 8213.09 2901.05
5946.7 617.398 797.394 3859.91 8599.62
5949.56 719.008 833.272 13725.9 7388.79
5952.42 1163.41 962.533 4580.6 13152.7
5955.28 1005.18 1005.39 21151.6 11626.5
5958.14 847.572 953.955 9147.3 9475.57
5961.01 1009.11 883.252 -1872.18 7878.79
5963.87 793.074 888.991 16361.2 5539.38
5966.73 864.789 931.011 2129.08 9108.64
5969.59 1135.17 991.434 8835.61 4818.94
5972.45 974.342 927.799 3492.13 2082.97
5975.31 673.886 839.568 -6078.81 2021.86
5978.17 870.476 833.651 8652.26 1307.96
5981.04 956.59 908.671 1350.44 6415.86
5983.9 898.946 951.758 9244.89 6369.94
5986.76 999.737 990.625 8514.5 5908.81
5989.62 1073.19 950.165 -32.9409 4796.16
5992.48 777.569 860.672 5906.93 3146.31
5995.34 731.255 878.138 3564.94 3624.19
5998.2 1125.59 909.214 1400.68 4078.43
6001.06 870.797 1015.54 7269.68 4277.11
6003.92 1050.24 899.291 4160.98 4732.01
6006.78 776.842 1002.46 2765.36 -107.071
6009.64 1180.31 971.236 -7247.56 5711.96
6012.5 956.557 951.888 21618.1 5972.96
6015.36 718.798 862.044 3548.37 6623.69
6018.22 910.777 766.255 -5295.36 -114.183
6021.07 669.19 819.024 1404.45 2160.95
6023.93 877.105 839.358 10373.8 -2559.36
6026.79 971.779 942.592 -19456.3 -1064.29
6029.65 978.893 958.774 5889.64 -8164.15
6032.51 925.651 993.413 -10925.8 2997.34
6035.37 1075.69 918.353 14028.2 -473.457
6038.23 753.713 926.894 -4522.76 6173.8
6041.08 951.276 853.286 9015.97 2492.81
6043.94 854.868 951.797 2985.23 3728.39
6046.8 1049.25 921.336 -816.019 -275.122
6049.66 859.894 978.368 -2994.58 2043.52
6052.52 1025.96 918.351 9941.15 1100.1
6055.37 869.195 942.827 -3646.29 4310.73
6058.23 933.324 862.98 6637.33 2238.63
6061.09 786.422 856.917 3724.86 7618.13
6063.95 851.004 842.955 12492.2 4960.39
6066.8 891.439 840.51 -1335.88 6556.25
6069.66 779.088 846.867 8512.43 3745.22
6072.52 870.072 890.521 4059.12 5986.13
6075.37 1022.4 929.245 5386.83 -2663.19
6078.23 895.263 907.23 -17435.5 1170.74
6081.09 804.027 886.888 15560.9 1396.04
6083.94 961.374 811.882 6062.75 5503.65
6086.8 670.245 758.349 -5112.69 1916.71
6089.65 643.429 707.626 4800.07 3213.54
6092.51 809.205 830.003 9953.24 8739.38
6095.37 1037.38 870.055 11464.8 11185
6098.22 763.586 852.842 12136.9 5709.11
6101.08 757.563 744.74 -6474.37 8333.58
6103.93 713.071 738.754 19338.3 -4753.56
6106.79 745.628 749.659 -27124.6 2725.09
6109.64 790.28 896.141 15961.6 -7885.24
6112.5 1152.52 934.939 -12492.7 4841.86
6115.35 862.021 925.535 11056.7 -5525.18
6118.21 762.067 814.16 -15139.5 -912.31
6121.06 818.393 898.543 1345.86 -3448.89
6123.92 1115.17 902.873 3446.97 1617.29
6126.77 775.056 897.745 59.0254 3716.68
6129.62 803.008 762.157 7644.03 -2879.2
6132.48 708.408 696.199 -16340.6 3872.06
6135.33 577.18 732.703 20312.8 -4966.17
6138.19 912.521 795.356 -18870.7 409.957
6141.04 896.368 945.591 -212.271 -7002.56
6143.89 1027.88 885.553 -1924.74 1899.37
6146.75 732.408 919.315 7835.13 -575.555
6149.6 997.653 739.05 -7637.05 3708.79
6152.45 487.088 740.444 10928.3 -1765.61
6155.31 736.591 650.532 -8588.07 4353.58
6158.16 727.915 756.565 10720.5 -1977.63
6161.01 805.19 813.723 -8065.34 4060.6
6163.86 908.065 741.586 9526.63 -1510.64
6166.72 511.502 727.164 -5993.23 2456.59
6169.57 761.926 738.912 3836.36 -3664.22
6172.42 943.307 882.516 -8835.81 2735.48
6175.27 942.315 953.698 13205.9 -5081
6178.12 975.472 963.594 -19613.1 5575.13
6180.98 972.994 905.505 23132.6 -5536.55
6183.83 768.05 827.566 -20129.2 10853.4
6186.68 741.654 829.72 29556.8 -5841.9
6189.53 979.456 819.645 -26953.3 8630.1
6192.38 737.825 928.272 23286.8 -5589.6
6195.23 1067.54 943.384 -13102.3 10558
6198.08 1024.79 960.56 21489.4 -4067.68
6200.94 789.351 846.354 -20590.2 10317.1
6203.79 724.92 758.469 30052 -1525.47
6206.64 761.135 913.223 -14038.3 6417.62
6209.49 1253.62 952.964 3239.12 1330.04
6212.34 844.142 938.351 14789.3 6815.26
6215.19 717.294 697.912 2417.36 2404.01
6218.04 532.299 744.931 -9994.63 4915.97
6220.89 985.201 758.19 22325.2 -5061.47
6223.74 757.07 829.244 -27515 -686.862
6226.59 745.46 838.025 3129.18 -486.738
6229.44 1011.54 866.19 22925.6 -2754.63
6232.29 841.567 971.801 -34318.6 1999.52
6235.13 1062.29 891.791 17391.6 -7101.54
6237.98 771.513 906.662 -4377.61 -2287.81
6240.83 886.18 857.77 -19877.4 -4105.8
6243.68 915.618 888.314 11937.6 -2614.49
6246.53 863.143 888.162 96.3048 -2326.64
6249.38 885.724 872.061 -19013.9 -2002.72
6252.23 867.317 905.372 12909.4 -4589.41
6255.07 963.075 907.738 -7663.78 -504.025
6257.92 892.821 969.432 -6757.69 -6810
6260.77 1052.4 940.863 -6008.55 -1597.27
6263.62 877.366 861.533 7974.44 4509.41
6266.47 654.831 767.517 11562.3 4178.9
6269.31 770.355 815.373 -7000.1 1462.69
6272.16 1020.93 868.361 -174.167 5154.77
6275.01 813.795 803.385 22638.6 9875.11
6277.86 575.427 730.98 7160.93 4308.74
6280.7 803.718 807.446 -16873.3 3429.36
6283.55 1043.19 937.723 20000.4 -775.708
6286.4 966.258 941.678 -5454.27 8745.86
6289.24 815.581 873.876 11691.4 -4472.61
6292.09 839.787 900.023 -19655 6272.72
6294.93 1044.7 1023.26 26781.7 -162.163
6297.78 1185.29 1071.74 -7613.23 4972.67
6300.63 985.213 1012.54 -4250.48 -4373.79
6303.47 867.106 915.143 -1257.64 8851.83
6306.32 893.108 875.814 32063.6 6705.41
6309.16 867.227 889.311 -10689.7 10779.8
6312.01 907.598 855.891 10965.5 -2263.76
6314.85 792.847 764.624 -7067.09 10119.8
6317.7 593.426 792.957 26460.9 -2871.76
6320.54 992.597 809.524 -28009.1 4948.06
6323.39 842.55 965.636 16392.4 -4881.38
6326.23 1061.76 929.04 -3027.38 3172.23
6329.08 882.809 1003.64 -3848.32 70.036
6331.92 1066.35 895.564 7085.81 -151.702
6334.77 737.535 940.194 -3692.6 9503.93
6337.61 1016.7 886.632 25118.6 -1391.27
6340.46 905.662 877.65 -25599.8 383.595
6343.3 710.592 890.758 1632 -7106.67
6346.14 1056.02 943.087 2647.78 3270.86
6348.99 1062.65 1037.65 5532.81 -456.762
6351.83 994.272 947.15 -9550.88 -3361.91
6354.67 784.531 886.146 -6067.67 530.733
6357.52 879.636 814.142 17210.8 -1960.12
6360.36 778.258 821.207 -17023.4 -7323.27
6363.2 805.727 793.774 -22157.1 714.944
6366.05 797.337 775.392 41325.4 -3496.66
6368.89 723.111 870.959 -29658.2 12687.8
6371.73 1092.43 832.095 26396.2 -1834.3
6374.57 680.745 832.345 -2240.84 2313.74
6377.41 723.862 696.939 -17214.1 -10604.2
6380.26 686.211 706.217 -12357.7 2691.89
6383.1 708.578 781.49 37647.5 4002.08
6385.94 949.68 847.742 -13283.6 888.509
6388.78 884.969 857.451 -21698.4 2827.54
6391.62 737.705 800.092 43464.6 158.776
6394.46 777.601 816.687 -21289.9 14470.4
6397.31 934.754 777.41 21236.4 -2030.39
6400.15 619.875 742.482 -6037.72 6631.59
6402.99 672.816 679.508 4696.07 -3502.97
6405.83 745.833 683.895 -9167.24 10301.8
6408.67 633.035 726.207 35376.7 8889.4
6411.51 799.752 630.559 458.801 4411.44
6414.35 458.889 745.064 -22601.1 6499.18
6417.19 976.552 619.046 41639.9 -5217.4
6420.03 421.699 712.32 -34690.9 25353.5
6422.87 738.708 676.019 69111.7 -5836.31
6425.71 867.65 711.986 -51929.7 21178.6
6428.55 529.6 656.637 46353.7 -13945.5
6431.39 572.662 606.398 -36260.5 19891.3
6434.23 716.931 722.15 49580.7 -9800.52
6437.07 876.858 778.394 -42721.7 6254.6
6439.9 741.393 744.524 11904.8 -8636.83
6442.74 615.32 578.903 4906.37 -5590.63
6445.58 379.997 531.954 -33583.1 -1692.66
6448.42 600.546 457.27 23598.7 -7052.63
6451.26 391.268 471.439 -11173.5 9595.46
6454.1 422.505 405.107 16361.2 3068.58
6456.93 401.548 467.033 4018.09 9786.1
6459.77 577.046 499.98 8979.06 8430.75
6462.61 521.346 575.813 12295.1 9048.56
6465.45 629.049 587.738 5871.54 -4476.34
6468.29 612.82 489.003 -31595.7 169.375
6471.12 225.14 411.726 26232.2 -8546.87
6473.96 397.22 309.431 -20277.2 10487.7
6476.8 305.933 396.593 25508 3684.21
6479.63 486.628 420.09 5821.88 11649.5
6482.47 467.708 497.182 3618.75 -3997.82
6485.31 537.211 556.653 -21434.1 6506.33
6488.14 665.039 520.053 37334.3 3457
6490.98 357.909 521.393 -5529.23 10170
6493.82 541.231 466.722 -1295.1 -14968.4
6496.65 501.026 498.703 -38081 -12636.7
6499.49 453.853 393.879 1466.02 -10181.8
6502.32 226.758 408.208 6069.67 15567.4
6505.16 544.015 361.004 39166.5 2869.73
6507.99 312.239 434.693 -36627 9106.12
6510.83 447.826 367.522 24778.8 -3935.29
6513.66 342.501 501.156 42.3283 13183
6516.5 713.141 513.166 14727.9 4521.19
6519.33 483.856 568.124 -1206.61 -4747.72
6522.17 507.376 576.82 -27764.4 3152.83
6525 739.228 592.478 38429.5 354.071
6527.84 530.828 635.345 -9602.9 24663.7
6530.67 635.977 687.45 45164.6 -3049.43
6533.51 895.543 717.021 -44709.9 6570.38
6536.34 619.543 768.256 19256.5 -13079.8
6539.17 789.681 727.117 -13786.1 12741
6542.01 772.126 719.924 32752.5 3966.19
6544.84 597.964 697.642 -7067.85 1143.18
6547.67 722.836 703.695 -22255.1 -9088.65
6550.51 790.284 775.974 2057.05 -7456.37
6553.34 814.803 989.136 -2171.03 3516.05
6556.17 1362.32 1225.77 10662.1 12983.5
6559 1500.17 1638.88 30459.5 -1343.15
6561.84 2054.15 1757.75 -45151.1 5281.28
6564.67 1718.94 2160.81 30535.4 -6109.14
6567.5 2709.35 2256.17 -3711.76 11216.4
6570.33 2340.2 2366.03 6825.4 -9117.46
6573.16 2048.53 1825.1 -30466 -5821.4
6576 1086.55 1408.78 6176.44 -4899.87
6578.83 1091.24 1059.05 9589.98 11306.9
6581.66 999.363 1083.44 18154.2 20589.7
6584.49 1159.72 1169.83 34025 1551.86
6587.32 1350.4 1247.99 -47523.7 3485.33
6590.15 1233.86 1244.11 23954.6 -18567
6592.98 1148.07 1196.09 -32132 2660.02
6595.81 1206.34 1180.82 16157.4 -11055.6
6598.64 1188.04 1243.6 -17192.3 2931.39
6601.47 1336.43 1299.8 9829.04 907.56
6604.3 1374.93 1423.52 10085.9 10807.4
6607.13 1559.21 1511.4 12507.1 13744.9
6609.96 1600.07 1507.13 18641.6 20139.3
6612.79 1362.12 1533.73 29269.1 1151.78
6615.62 1638.98 1465.59 -44455.4 6255.77
6618.45 1395.68 1566.94 33953.6 788.405
6621.28 1666.16 1478.23 12867 18730.3
6624.11 1372.84 1541.19 9370.39 4479.44
6626.94 1584.56 1392.01 -8799.08 -1566.56
6629.77 1218.64 1430.47 -5270.97 6817.27
6632.6 1488.2 1426.06 34521.9 1413.54
6635.43 1571.34 1462.52 -25010.3 7119.99
6638.25 1328.01 1524.06 11848.4 -2940.71
6641.08 1672.82 1465.73 4339.77 9990.15
6643.91 1396.35 1562.31 13782.3 18769.6
6646.74 1617.74 1458.48 38186.6 18765.9
6649.56 1361.33 1552.15 4328.63 14487.8
6652.39 1677.38 1532.42 948.044 3932.96
6655.22 1558.55 1632.25 6522.22 2510.78
6658.05 1660.81 1640.19 62.0923 -3218.95
6660.87 1701.2 1660.76 -16241.2 -17892.4
6663.7 1620.28 1625.88 -37498.2 5144.05
6666.53 1556.17 1475.11 69171.5 -8984.17
6669.35 1248.89 1343.82 -58625.8 9559.01
6672.18 1226.41 1382.91 18131.3 -4458.79
6675.01 1673.43 1391.29 27118.1 3328.32
6677.83 1274.03 1411.48 -35264.5 9875.89
6680.66 1286.98 1468.38 37774.1 4193.93
6683.48 1844.13 1427.22 10072.2 7603.46
6686.31 1150.54 1447.94 -25035.9 6384.11
6689.13 1349.15 1347.99 34116 2279.46
6691.96 1544.28 1338.12 -2241.72 20092.2
6694.78 1120.93 1347.43 28402.1 18628.5
6697.61 1377.1 1242.88 29724.9 17405.8
6700.43 1230.63 1292.3 -5909.64 1360
6703.26 1269.19 1242.22 -19735.3 -4318.4
6706.08 1226.85 1214.52 12689.7 -9322.56
6708.91 1147.54 1196.84 -20922.1 22210.3
6711.73 1216.12 1079.72 74863.4 4818.53
6714.56 875.489 1100.64 -39485.7 20575.6
6717.38 1210.32 1100.74 26349.1 -12476.7
6720.2 1216.42 1174.83 -24293.4 8410.41
6723.03 1097.74 1196.53 23175.5 -17905.3
6725.85 1275.42 1198.92 -52597.9 10865.9
6728.67 1223.62 1230.17 62020.1 -1997.12
6731.5 1191.47 1230.81 -15413.5 9826.32
6734.32 1277.33 1169.62 -17127.6 -15464.3
6737.14 1040.05 1118.96 -13851.8 4425.13
6739.96 1039.51 1077.74 44254.8 16387.8
6742.79 1153.65 1044.53 18760.6 27630.1
6745.61 940.426 1037.8 19875 -1433.3
6748.43 1019.31 989.946 -42935.5 13228.7
6751.25 1010.1 1027.29 62746.6 13146.3
6754.07 1052.45 1028.22 19627.7 19404.8
6756.9 1022.12 995.58 -24159.9 12459.7
6759.72 912.175 985.177 41911.4 17846.8
6762.54 1021.24 952.001 35789 24601.4
6765.36 922.587 954.454 -3896.21 4571
6768.18 919.534 949.748 -18179.8 -1546.09
6771 1007.12 949.581 17437.7 -4593.42
6773.82 922.087 890.978 -13038.2 9240.04
6776.64 743.724 882.761 23320.6 18025.5
6779.46 982.473 859.935 43794.2 13024.4
6782.28 853.609 870.48 -28041.7 3307.56
6785.1 775.358 867.372 -5829.78 236.499
6787.92 973.148 891.098 34581 20366
6790.74 924.787 975.548 32346.8 5660.22
6793.56 1028.71 962.292 -49947.1 17806.3
6796.38 933.379 1044.57 71019.2 8589.82
6799.2 1171.61 850.183 4697.37 22008.5
6802.02 445.555 825.646 -9691.23 10745.4
6804.84 859.77 740.798 37230.2 16908.5
6807.65 917.07 854.724 23186.6 22111.9
6810.47 787.331 846.676 5918.8 8710.29
6813.29 835.628 802.626 -2974.55 2669.75
6816.11 784.919 801.803 5065 -2041.57
6818.93 784.862 867.13 -8215.17 6959.61
6821.74 1031.61 933.319 24029 2258.5
6824.56 983.488 955.911 -9038.33 8853.68
6827.38 852.635 965.058 11570.4 26182.5
6830.2 1059.05 921.519 76015.5 20485
6833.01 852.871 855.751 -26130.8 28557
6835.83 655.332 821.767 35786.2 -3692.27
6838.65 957.098 837.536 -20732.3 14768.5
6841.46 900.176 934.622 29251.4 -1196.11
6844.28 946.59 855.676 -12107.5 12403
6847.1 720.262 839.002 20065 -5316.13
6849.91 850.153 742.323 -23905.9 3176.95
6852.73 656.554 813.82 13371.8 -15052.5
6855.54 934.752 811.949 -34623.4 6324.78
6858.36 844.542 899.932 40226 12620
6861.17 920.502 844.391 32257.5 2793.49
6863.99 768.128 806.428 -64103.1 809.827
6866.8 730.655 698.718 34275 -24563.9
6869.62 597.371 691.785 -43863.8 13485.5
6872.43 747.331 692.856 50045.2 -6271.31
6875.25 733.866 638.515 -24995.4 22456.4
6878.06 434.349 622.936 42319.4 4391.47
6880.88 700.595 611.668 -4149.61 8800.79
6883.69 700.061 675.658 -11767.4 -1464.93
6886.5 626.32 721.13 11522.2 -9949.02
6889.32 837.01 743.709 -29601.9 11163.7
6892.13 767.797 761.234 51570.6 21797.7
6894.94 678.896 754.018 43424.3 30928.1
6897.76 815.362 769.388 -2210.7 26139.5
6900.57 813.906 774.342 37204.9 514.859
6903.38 693.759 743.087 -33449.7 16015
6906.2 721.596 701.257 44289.7 -2871.71
6909.01 688.415 793.71 -19455.1 2404.22
6911.82 971.119 751.765 -17621.9 8021.42
6914.63 595.761 792.792 61141.3 4722.74
6917.44 811.497 743.775 -29351.2 16702.6
6920.26 824.067 731.914 18317.6 6036.47
6923.07 560.178 689.445 29143 23202
6925.88 684.091 619.192 22145.5 6599.15
6928.69 613.306 655.09 -31491.1 4502.61
6931.5 667.874 663.71 22853.4 3925
6934.31 709.95 742.03 20412.7 11880.7
6937.12 848.267 685.581 -7623.91 3649.3
6939.93 498.526 728.45 -1840.87 2206.24
6942.74 838.558 639.103 16083.5 8898.49
6945.55 580.225 738.99 12452.8 15571
6948.36 798.187 717.258 18176.5 4444.01
6951.17 773.363 726.513 -17297.3 -9282.67
6953.98 607.988 694.363 -28727.2 -8620.78
6956.79 701.738 684.966 20162.2 -12076.7
6959.6 745.171 724.233 -27665.1 -3937.97
6962.41 725.791 673.442 -4311.04 -11486
6965.22 549.364 661.64 -2481.99 -11988.6
6968.03 709.764 599.907 -29172.9 63.9409
6970.84 540.592 638.675 31846.7 4329.24
6973.65 665.67 633.066 10313.9 19912.5
6976.45 692.937 711.098 17576.9 9286.74
6979.26 774.687 672.758 -30.5868 9103.59
6982.07 550.65 654.436 9764.44 4709.24
6984.88 637.972 583.348 4393.88 8106.05
6987.69 561.421 593.712 10159.8 -571.956
6990.49 581.741 583.852 -16269.6 -7929.68
6993.3 608.393 649.99 -17679.3 -732.306
6996.11 759.835 699.8 31751.9 16633.3
6998.91 731.174 735.276 35827.3 20691.8
7001.72 714.82 748.444 -5503.71 9889.17
7004.53 799.338 727.584 -656.077 12293.5
7007.33 668.594 680.074 43040.3 1679.08
7010.14 572.291 656.684 -37346.9 -5529.8
7012.95 729.168 576.615 -22282.7 -27958.4
7015.75 428.387 593.387 -24245.4 1943.21
7018.56 622.608 607.039 52357.8 -17659.8
7021.36 770.123 709.136 -81091.7 -5805.78
7024.17 734.677 765.734 11316.6 -26396.8
7026.97 792.403 687.495 -9415.32 13680
7029.78 535.404 657.471 39138.8 9445.4
7032.58 644.607 543.27 -1387.31 12224.9
7035.39 449.799 641.225 -1076.88 3222.03
7038.19 829.268 683.683 12130.3 -7239.78
7041 771.983 779.448 -32772.8 -18738.6
7043.8 737.092 783.483 -35573.3 -3186.07
7046.6 841.373 757.564 58787.9 11110.8
7049.41 694.225 773.139 10117.8 32187.8
7052.21 783.819 767.655 27657.8 3756.4
7055.01 824.921 829.365 -26506.4 13743.8
7057.82 879.354 810.211 40080 -7686.16
7060.62 726.357 741.468 -36632.1 12748.7
7063.42 618.693 670.81 34798.2 -5387.82
7066.22 667.379 621.341 -14329.6 14874.5
7069.03 577.95 612.23 24155 -7433.97
7071.83 591.361 605.626 -32127.3 525.389
7074.63 647.568 663.388 9548.51 6821.59
7077.43 751.235 687.876 43043.6 1358.43
7080.23 664.826 732.084 -48516.8 11776.1
7083.04 780.191 715.496 40801.5 -9210.52
7085.84 701.471 773.106 -19916.3 15757.8
7088.64 837.655 753.852 26388.1 -2004.77
7091.44 722.431 711.409 -12486.2 -11050
7094.24 574.142 713.066 -47051.9 1439.66
7097.04 842.626 787.997 63857 9744.09
7099.84 947.224 818.932 12427.1 20623.1
7102.64 666.946 701.319 -14414.8 3357.38
7105.44 489.786 600.33 12059.8 -9515.42
7108.24 644.256 596.78 -26191.2 467.925
7111.04 656.297 647.779 15535.2 22193
7113.84 642.785 662.643 77235 17470
7116.64 688.846 691.774 -40360.3 31436.5
7119.44 743.691 809.227 57434.7 510.637
7122.24 995.145 744.491 -15542.5 17334.7
7125.04 494.638 701.596 10111.8 19507.9
7127.83 615.004 667.611 63954.2 27454.9
7130.63 893.192 750.349 8298.57 4202.82
7133.43 742.852 761.837 -59644.3 3024.39
7136.23 649.467 701.769 60418.9 4525.83
7139.03 712.988 630.583 12802.9 41250
7141.82 529.294 616.793 50528.1 25201.4
7144.62 608.097 539.797 12273.3 17474
7147.42 482.001 587.979 -10379.4 44811.8
7150.22 673.84 607.44 132541 5421.43
7153.01 666.479 575.4 -105898 25955
7155.81 385.88 526.607 51221.4 -28881.8
7158.61 527.463 463.413 -31969 15250.7
7161.4 476.896 581.82 26499.7 11734.7
7164.2 741.102 583.533 40673.3 22253.2
7166.99 532.6 631.104 -413.32 27031.6
7169.79 619.61 599.727 40834.9 22748.1
7172.59 646.972 648.715 27822.7 19454.1
7175.38 679.564 636.04 -10295.1 4343.71
7178.18 581.585 638.482 -4496.42 3159.16
7180.97 654.297 668.026 24269 8101.35
7183.77 768.196 761.782 4531.43 16078.2
7186.56 862.853 809.757 19434 -5984.57
7189.36 798.222 781.311 -41919.2 1657.28
7192.15 682.857 726.191 27457 -5581.79
7194.94 697.495 712.676 -2283.21 28133.2
7197.74 757.675 693.739 59226 8559.3
7200.53 626.048 660.594 -31264.8 -6132.36
7203.33 598.06 636.248 -46358.2 -12962.4
7206.12 684.635 616.815 38736 -7381.43
7208.91 567.749 618.012 -14522.1 -713.862
7211.7 601.652 629.844 -26355.5 494.629
7214.5 720.132 607.185 42361.4 16126
7217.29 499.77 559.156 32372 -5953.62
7220.08 457.567 538.071 -92594.3 21581.9
7222.87 656.875 577.845 124968 2094.71
7225.67 619.093 647.32 -26089.6 33461.6
7228.46 665.993 575.268 1506.3 -11503.5
7231.25 440.718 472.391 -9927.27 31908.9
7234.04 310.461 479.573 104148 28059.9
7236.83 687.542 540.932 -10040.7 7483.84
7239.62 624.795 660.888 -71655.4 213.316
7242.41 670.327 469.797 82336.1 -6964.78
7245.21 114.269 401.094 -31575 23210.7
7248 418.684 361.409 18871.1 -15639.1
7250.79 551.275 578.416 -34213.3 12078.1
7253.58 765.288 635.799 51576.4 -26026.9
7256.37 590.833 605.813 -95443.7 3533.35
7259.16 461.318 569.849 54467.3 -574.32
7261.95 657.395 485.624 39253.4 12533
7264.73 338.159 504.552 -56121.6 33352.7
7267.52 518.102 447.034 116926 -10383.3
7270.31 484.841 608.573 -91954.6 49952.6
7273.1 822.777 700.771 124886 -11614.4
7275.89 794.696 746.411 -67774.8 57949.4
7278.68 621.76 676.5 116737 18683.3
7281.47 613.044 570.387 7088.08 24511.1
7284.25 476.357 535.714 -50291.7 -675.284
7287.04 517.74 539.168 41177.7 1977.81
7289.83 623.409 513.42 15047.4 29778.6
7292.62 399.112 591.141 33110.7 24623.4
7295.4 750.901 545.476 25712.1 15789.3
7298.19 486.415 612.192 -11454.8 -1712.37
7300.98 599.259 599.756 -19394.4 11802.4
7303.76 713.596 612.982 66256.5 11093.8
7306.55 526.091 622.507 -13580.8 13589.8
7309.34 627.833 603.264 -11906.3 -7058.14
7312.12 655.866 646.273 4312.72 6264.32
7314.91 655.119 607.056 26386.6 -6548.06
7317.7 510.183 561.085 -50343.5 17283.4
7320.48 517.952 571.151 75807.2 -30183
7323.27 685.316 631.472 -116013 25096.7
7326.05 691.148 588.678 115496 -21557.8
7328.84 389.568 488.123 -64156.3 64971.7
7331.62 383.653 473.915 143576 -7883.33
7334.41 648.525 538.633 -103070 26222.1
7337.19 583.721 616.383 38159.9 -21982.4
7339.97 616.904 569.159 -1037.57 18177.6
7342.76 506.853 548.609 17410.6 -992.365
7345.54 522.069 502.492 -19350.1 16970.7
7348.32 478.556 484.503 52851.7 2850.09
7351.11 452.885 503.675 -24951.3 9634.04
7353.89 579.584 539.132 1001.74 -26510.6
7356.67 584.926 676.329 -55582.2 -1906.91
7359.46 864.477 700.342 48859.7 6342.02
7362.24 651.623 617.254 25748.5 6650.75
7365.02 335.662 616.559 -54656 14890.6
7367.8 862.391 614.668 73579.4 -33582.1
7370.59 645.95 635.543 -119670 -3930.97
7373.37 398.288 490.683 34297.5 -17595.1
7376.15 427.81 545.693 32587.2 9874.91
7378.93 810.98 578.595 -37259.9 15680
7381.71 496.994 652.277 51712.7 -26025.9
7384.49 648.857 545.857 -92530.4 11208.2
7387.27 491.72 600.598 74442.3 -27862.2
7390.05 661.217 591.729 -65498.4 57933.1
7392.83 622.25 604.125 164855 -15246.4
7395.61 528.907 636.809 -145096 39289.6
7398.39 759.27 574.52 98109.6 -29647.2
7401.17 435.384 531.958 -41954.9 23095.8
7403.95 401.222 445.209 13132.6 5044.43
7406.73 499.02 501.068 43955.5 -54030.9
7409.51 602.964 506.872 -219181 15773.3
7412.29 418.632 528.604 222545 -32673.9
7415.07 564.214 483.704 -101386 79951.2
7417.85 468.264 548.127 118694 -11161.5
7420.63 611.904 529.855 -50792.7 26982.2
7423.4 509.398 552.338 13044.7 -17415.1
7426.18 535.712 506.869 -14497.2 19559.2
7428.96 475.496 553.475 60130.2 -17249.7
7431.74 649.217 591.747 -97381.9 67840.3
7434.51 650.528 687.851 240773 -9274.88
7437.29 763.806 646.165 -171215 40730.6
7440.07 524.16 600.451 52634.5 -13260.6
7442.85 513.386 530.92 78799 9671.14
7445.62 555.214 493.024 -102420 33469.8
7448.4 410.474 511.662 124031 -3109.78
7451.17 569.299 490.77 -30939.8 42791.7
7453.95 492.538 522.122 35284.5 7524.12
7456.73 504.529 508.236 18227.7 33348.8
7459.5 527.64 473.244 46534.4 10741.6
7462.28 387.563 482.697 -32537.2 -26478.9
7465.05 532.887 431.508 -93433.8 9834.12
7467.83 374.075 491.803 155473 -19679.2
7470.6 568.447 499.635 -121077 31785.8
7473.38 556.384 476.188 60961.3 -29923.3
7476.15 303.734 431.608 -29653.9 36927.1
7478.92 434.708 444.187 79473.8 2008.01
7481.7 594.119 500.475 -43795.8 62906.2
7484.47 472.598 553.915 153041 -37977.8
7487.25 595.028 598.348 -223178 84984.2
7490.02 727.418 638.163 325090 -16299.8
7492.79 592.042 587.136 -150811 62805.3
7495.57 441.947 559.166 14137.4 21429.5
7498.34 643.51 525.5 200962 -19841.3
7501.11 491.043 542.05 -274624 67396.9
7503.88 491.598 512.615 275852 -126560
7506.65 555.203 513.756 -380909 89752.1
7509.43 494.467 532.433 374313 -105564
7512.2 547.628 520.297 -310096 100367
7514.97 518.795 533.217 236884 -108263
7517.74 533.229 572.225 -251576 55211.9
7520.51 664.65 655.933 180327 -85751.1
7523.28 769.92 608.806 -186005 13851.5
7526.05 391.849 537.666 47232.1 -18814.7
7528.82 451.228 369.405 82328.7 -4887.83
7531.59 265.138 452.353 -144224 22016.3
7534.36 640.692 421.113 127945 -40964.8
7537.13 357.51 474.387 -106615 46811.9
7539.9 424.96 503.267 119106 -35007.3
7542.67 727.332 611.376 -117513 41910.7
7545.44 681.836 597.632 124139 -32091
7548.21 383.73 549.992 -102899 60891.3
7550.98 584.411 556.288 161434 -43062.1
7553.75 700.724 611.309 -187721 50369
7556.52 548.793 632.731 177394 -70736.3
7559.28 648.676 565.852 -201882 126556
7562.05 500.087 562.539 404155 -138620
7564.82 538.855 544.33 -618132 117058
7567.59 594.048 540.093 565150 -194445
7570.35 487.376 505.137 -530352 205235
7573.12 433.986 502.768 580908 -186034
7575.89 586.943 470.253 -608657 177609
7578.65 389.829 455.325 560576 -156061
7581.42 389.204 426.501 -420101 151142
7584.19 500.47 458.463 312950 -127913
7586.95 485.716 481.278 -276589 76986.1
7589.72 457.647 466.111 194597 -79873.2
7592.48 454.971 379.186 -157628 46974
7595.25 224.941 292.55 103953 -50693.3
7598.02 197.739 191.321 -98404.5 18070.5
7600.78 151.282 191.881 48663 -22844.4
7603.55 226.623 166.102 -18791.6 14092.4
7606.31 120.401 156.396 12405.9 9113.4
7609.07 122.163 158.176 33726 -6234.54
7611.84 231.964 209.612 -64835.5 20979.1
7614.6 274.709 268.377 94046.8 -5728.11
7617.37 298.457 313.44 -46395.6 9067.59
7620.13 367.152 369.967 -20448.3 3478.32
7622.89 444.292 323.849 77279 32280.2
7625.66 160.103 248.106 40010 11252.4
7628.42 139.923 192.076 -83531.7 5342.63
7631.18 276.201 198.786 59549.6 9355.13
7633.94 180.232 195.243 52047.5 12731.9
7636.71 129.296 202.834 -73401.5 61209.8
7639.47 298.974 268.818 204984 -3421.79
7642.23 378.184 352.543 -141847 18981.7
7644.99 380.472 368.584 -6191.05 -20929.8
7647.75 347.095 423.351 85249.2 -12231.6
7650.51 542.486 386.283 -115753 19058.3
7653.27 269.268 408.934 87678.7 -54322.8
7656.03 415.048 346.797 -134894 44648.3
7658.79 356.076 364.102 181160 -10617.3
7661.56 321.183 356.584 -78118.2 16339.9
7664.32 392.495 373.326 -54022.4 2961.9
7667.08 406.3 388.28 141026 -30962.2
7669.83 366.047 390.489 -179891 20731.8
7672.59 399.119 393.333 101060 -21837
7675.35 414.834 419.252 13319.7 15322.9
7678.11 443.803 406.58 -68410.7 -5530.08
7680.87 361.104 417.714 38500.8 -15058.5
7683.63 448.236 439.717 -15265.5 16451.7
7686.39 509.812 443.765 26120 3785.95
7689.15 373.248 416.779 503.387 -2820.23
7691.9 367.276 369.214 -35084.1 -12840.5
7694.66 367.117 406.224 -3940.74 -6881.17
7697.42 484.279 365.925 18381.3 46852.5
7700.18 246.381 361.848 126117 -3574.99
7702.93 354.885 353.145 -155223 49311
7705.69 458.168 430.821 177039 -26966.1
7708.45 479.409 466.16 -102714 45376.3
7711.2 460.903 477.78 61803.7 11734.1
7713.96 493.027 464.354 76112.9 60595.4
7716.71 439.132 408.976 43869.6 40875.2
7719.47 294.769 344.986 2643.1 -44053.7
7722.23 301.057 261.096 -178674 -138.283
7724.98 187.461 334.932 175616 -36788.1
7727.74 516.278 361.264 -107306 36508.4
7730.49 380.054 414.565 41215.5 -34233.7
7733.25 347.363 386.515 -36610.2 4987.44
7736 432.128 337.636 10357.1 -11502.6
7738.75 233.416 306.254 -8254.77 -43635.8
7741.51 253.218 308.882 -133010 -4300.05
7744.26 440.012 365.417 128364 -33974.3
7747.02 403.021 417.547 -97277.6 34461.3
7749.77 409.609 439.112 72297.1 -24826.3
7752.52 504.708 407.763 -49498.4 8160.14
7755.27 308.973 393.128 1681.69 -20057.5
7758.03 365.704 315.878 -12355.8 2554.13
7760.78 272.959 354.376 18336.5 39283.3
7763.53 424.465 343.454 111869 4551.01
7766.28 332.94 368.048 -116553 13045.2
7769.04 346.739 337.199 43819 -8715.7
7771.79 331.918 317.451 46586.5 35213.3
7774.54 273.695 359.463 15234.3 27204.7
7777.29 472.775 400.424 19793.4 -2962.9
7780.04 454.802 411.3 -43916.3 -36983.3
7782.79 306.322 341.025 -86827 -24142.7
7785.54 261.952 367.814 58315.1 -29746.9
7788.29 535.169 435.473 -60728.7 7132.71
7791.04 509.299 488.273 23811.7 33335.7
7793.79 420.351 421.42 136924 10651.1
7796.54 334.611 400.501 -128782 23037.8
7799.29 446.54 364.967 60971.7 2679.39
7802.04 313.751 410.518 75848.9 49934.9
7804.79 471.265 337.432 12984.2 43820.4
7807.54 227.28 345.538 42628 -17929.7
7810.28 338.069 289.813 -109401 -5556.01
7813.03 304.088 365.342 50105.3 -16257.5
7815.78 453.867 428.358 10523.6 -22472
7818.53 527.119 465.345 -128045 17334.1
7821.28 415.049 455.996 169523 -19564.1
7824.02 425.82 389.478 -100171 6695.68
7826.77 327.565 355.256 -49265.5 10646.3
7829.52 312.383 285.511 181375 3520.63
7832.26 216.586 265.751 -121548 69419.5
7835.01 268.284 320.535 148431 -2182.19
7837.76 476.734 375.475 -33430 42746.4
7840.5 381.406 409.818 13238.1 40040
7843.25 371.314 334.726 140312 15642.5
7845.99 251.459 329.216 -106623 27248.5
7848.74 364.877 308.345 48056.3 -58853.5
7851.48 308.699 452.206 -117994 -20047.2
7854.23 683.044 456.015 9796.3 -25764.5
7856.97 376.303 537.922 30904.4 -4523.48
7859.72 554.419 455.061 -54271.1 -11398.7
7862.46 434.461 459.043 -10829.4 5142
7865.21 388.249 414.486 80526.5 9841.7
7867.95 420.747 413.28 -40172 18912.2
7870.69 430.843 407.962 16382.2 15630.1
7873.44 372.295 412.248 70680.1 9966.83
7876.18 433.608 395.366 -57161.8 41413.3
7878.92 380.196 371.681 110722 -19880.9
7881.66 301.238 354.829 -113203 -6594.71
7884.41 383.054 355.247 -17303.2 -25016
7887.15 381.45 432.16 55458 18582.5
7889.89 531.975 408.582 17592.8 1188.03
7892.63 312.321 421.743 -69486.7 15781.5
7895.37 420.934 339.232 99238.5 2409.44
7898.11 284.44 347.62 -22523.5 31366.2
7900.85 337.488 326.253 17383.5 22735.6
7903.6 356.831 313.956 73346.8 940.009
7906.34 247.548 351.641 -87910.3 34765.4
7909.08 450.544 387.584 118860 -30268.1
7911.82 464.661 438.37 -121754 69958.3
7914.56 399.906 416.807 212769 -33163.9
7917.29 385.855 421.344 -190507 24751
7920.03 478.272 415.959 51990.9 -38379.1
7922.77 383.749 358.418 23378.6 -15874
7925.51 213.232 309.502 -122992 -862.319
7928.25 331.526 297.142 97025.9 -6794.79
7930.99 346.667 422.926 5581.22 44836.9
7933.73 590.583 411.66 31903.5 7664.47
7936.46 297.728 380.374 -14491.3 -9621.38
7939.2 252.81 265.793 -46276.3 -22121.8
7941.94 246.842 307.232 -5597.75 5167.41
7944.68 422.045 333.168 67376.3 -8805.76
7947.41 330.617 381.065 -88195.8 19351.5
7950.15 390.533 325.398 78874 -19570.4
7952.89 255.044 334.392 -49389.5 90736.4
7955.62 357.599 334.681 242725 15457.6
7958.36 391.401 381.053 -146962 24244.6
7961.1 394.16 440.443 -23028.5 -56053.7
7963.83 535.769 367.159 1829.97 -24983.5
7966.57 171.549 327.704 -53752 -20766.5
7969.3 275.794 265.143 -10377.6 -24701.9
7972.04 348.087 290.414 -9976.12 24790
7974.77 247.36 312.605 94723.9 1806.61
7977.51 342.369 304.299 -79327.9 7655.89
7980.24 323.168 342.178 7571.74 -48548.6
7982.97 360.996 332.212 -73889.7 45694.6
7985.71 312.473 323.142 203402 28643.7
7988.44 295.957 368.974 -43580.8 49690.6
7991.17 498.493 460.958 -10749.1 18142.4
7993.91 588.424 477.012 108757 14378.1
7996.64 344.119 444.949 -54873.7 7411.28
7999.37 402.304 369.406 -31649.5 -34029.7
8002.1 361.794 402.492 -15566 618.61
8004.84 443.378 400.033 49071.3 16975.3
8007.57 394.926 417.801 17420.6 28247.4
8010.3 415.098 411.444 18250.2 -14744
8013.03 424.31 377.214 -79902.7 -22288.3
8015.76 292.235 323.284 -5212.32 -20368.2
8018.49 253.309 299.191 24010.4 637.594
8021.22 352.028 276.438 -16885.3 -18338.6
8023.95 223.976 313.314 -62141 17851.5
8026.68 363.937 345.161 132581 4269.54
8029.41 447.57 307.236 -57631.2 -25969.7
8032.14 110.202 283.367 -152859 -48508.1
8034.87 292.329 235.499 64965.7 -28171.8
8037.6 303.964 326.183 3377.49 37697.3
8040.33 382.256 377.838 44748.7 7486.21
8043.06 447.295 359.703 -25667.5 12148.6
8045.79 249.558 377.076 17364.6 14738.6
8048.52 434.376 339.087 52518.9 -2321.4
8051.24 333.328 358.154 -76847.7 45354.9
8053.97 306.76 338.442 160394 -42815.5
8056.7 375.239 353.953 -211992 34975.3
8059.43 379.861 378.512 156525 -81102.5
8062.15 380.435 369.569 -187840 51793.6
8064.88 348.411 306.639 186696 1360.82
8067.61 191.069 281.062 5226.45 61961.2
8070.33 303.705 255.354 -6038.84 18731.7
8073.06 271.288 311.361 57007.6 14996.3
8075.78 359.09 330.719 -5979.94 38011.1
8078.51 361.78 360.391 63005.8 20484
8081.24 360.304 335.782 4426.31 33065.9
8083.96 285.261 362.115 31765.5 43066.4
8086.69 440.78 343.129 93007.4 19189.9
8089.41 303.345 383.695 -67203.1 -776.023
8092.13 406.96 296.983 -28132.4 21192.7
8094.86 180.644 309.381 158914 -24402.6
8097.58 340.539 324.792 -203989 69139.8
8100.31 453.192 373.644 252495 9184.5
8103.03 327.203 348.097 -20952.3 99862.5
8105.75 263.897 320.054 68045 61485.1
8108.48 369.062 294.38 137363 60353.1
8111.2 250.18 291.124 -24348.4 3715.19
8113.92 254.129 251.167 -101869 -20536.9
8116.64 249.194 259.582 64606.4 33139.6
8119.36 275.423 322.238 136681 37348
8122.09 442.097 338.436 -89243.5 39755
8124.81 297.789 390.452 71827.4 -50484
8127.53 431.469 377.973 -134036 74941.1
8130.25 404.662 358.705 287032 -47478.5
8132.97 239.985 271.234 -295431 90729.1
8135.69 169.056 206.64 280587 -20033.2
8138.41 210.878 220.968 -45255.3 32739.6
8141.13 282.968 291.782 -137113 30213
8143.85 381.499 290.742 273007 -87984.3
8146.57 207.757 325.673 -399847 26399.5
8149.29 387.763 272.153 206039 3827.92
8152.01 220.938 307.879 205292 50820.7
8154.73 314.936 315.529 -258869 30767.7
8157.45 410.713 324.404 145879 -26018.2
8160.16 247.564 247.881 34934.6 98867.8
8162.88 85.3667 183.652 115789 -5527.93
8165.6 218.024 161.929 -167308 15302.6
8168.32 182.395 273.938 97426.3 -115831
8171.03 421.393 295.582 -277613 34463.2
8173.75 282.958 295.383 283576 -85007
8176.47 181.798 235.503 -260984 144056
8179.18 241.753 187.589 409576 -140201
8181.9 139.217 216.046 -569196 112196
8184.62 267.168 171.783 496207 -131049
8187.33 108.963 222.751 -320157 147079
8190.05 292.122 210.464 265187 -39890.3
8192.76 230.307 277.988 -64700.8 -8737.19
8195.48 311.535 251.597 -226698 78926
8198.19 212.95 288.823 528177 -87414.8
8200.91 341.984 262.945 -563723 232904
8203.62 233.902 294.08 734258 -147339
8206.34 306.355 229.947 -612551 176268
8209.05 149.583 216.954 407099 -35411.3
8211.76 194.925 181.259 99218.3 57175.6
8214.48 199.269 218.653 -334790 19499.3
8217.19 261.765 243.12 294070 -90233.2
8219.9 268.327 252.671 -229979 103112
8222.61 227.92 236.742 245246 -98672.7
8225.33 213.978 195.907 -311285 30334.9
8228.04 145.823 216.414 157043 -86751.2
8230.75 289.442 212.707 -106012 104654
8233.46 202.855 196.627 262929 -24777.1
8236.17 97.5822 180.82 -231249 -34185.3
8238.88 242.021 193.524 -134236 -16397
8241.6 240.969 243.107 316294 -81609.6
8244.31 246.331 218.271 -426886 88068.2
8247.02 167.513 256.679 374797 -95222.4
8249.73 356.192 246.633 -233577 -7307.99
8252.44 216.195 275.532 -163143 -66345.7
8255.15 254.21 261.282 197684 3609.86
8257.85 313.441 241.741 -23710.7 43569.1
8260.56 157.571 269.11 -43265.5 30057.5
8263.27 336.317 216.783 157149 -86021.1
8265.98 156.461 224.6 -371946 54632.4
8268.69 181.022 202.681 378695 -44356.3
8271.4 270.56 236.237 -139817 9321.43
8274.1 257.129 321.301 -210913 -90553.7
8276.81 436.216 327.131 79069.5 9388.47
8279.52 288.049 298.979 160009 45537.1
8282.23 172.671 308.423 -102467 32617.9
8284.93 464.548 275.419 40312.1 -17518.2
8287.64 189.037 299.054 9600.65 -61529.8
8290.35 243.576 229.239 -234502 -53219.1
8293.05 255.105 286.162 65244.3 21838.9
8295.76 359.806 313.989 234774 97340.7
8298.46 327.057 281.459 -7996.67 1265.31
8301.17 157.513 216.873 -222982 -21172.3
8303.87 166.049 173.396 167462 -7191.36
8306.58 196.626 208.248 33946.2 98736.3
8309.28 262.069 217.163 94801.2 -21444.1
8311.99 192.795 253.157 -193080 -37766.3
8314.69 304.606 230.255 -15020.3 -60288.5
8317.39 193.365 270.259 27234.5 -17212.1
8320.1 312.806 229.237 -63850.4 -33198
8322.8 181.54 247.873 -62977.9 -77356.3
8325.5 249.272 232.527 -105241 -34043.2
8328.21 266.77 230.633 66088.8 11287.8
8330.91 175.857 218.1 73015.2 37045.8
8333.61 211.673 203.689 -27966.7 -35235.2
8336.31 223.536 248.433 -150754 -9181.34
8339.01 310.09 316.013 151177 5513.3
8341.71 414.414 356.095 16117.2 16380.6
8344.42 343.783 380.516 -118152 -24144.2
8347.12 383.351 326.377 29602.2 -46691.6
8349.82 251.996 232.157 -51525 -29147.6
8352.52 61.1246 165.199 -65520.1 -32913
8355.22 182.478 162.462 18306 12498.2
8357.92 243.783 174.375 84708.8 72648.8
8360.62 96.8626 258.75 114932 67265.3
8363.32 435.603 239.679 2155.45 15250.8
8366.01 186.573 254.1 -71334.6 -26097.3
8368.71 140.124 148.675 -9112.77 -6562.9
8371.41 119.329 187.484 60758.7 61545.1
8374.11 303.001 197.207 132990 68936.8
8376.81 169.292 255.307 13062.4 35750.3
8379.51 293.628 236.132 -38801 -6844.84
8382.2 245.475 284.517 5204.07 6998.4
8384.9 314.447 278.317 54592.1 7096.45
8387.6 275.028 238.734 -38506.8 44182.2
8390.29 126.728 253.286 116461 -14629.7
8392.99 358.103 320.965 -121844 21310.2
8395.69 478.064 315.99 69312.8 839.413
8398.38 111.804 267.777 55049.2 -9060.08
8401.08 213.464 109.341 -151542 -34275.8
8403.77 2.75386 119.714 -6334.27 -56938.3
8406.47 142.924 66.0345 -12938.5 28139.3
8409.16 52.4258 132.767 103691 -10893.7
8411.86 202.952 225.234 -123433 6841.47
8414.55 420.324 319.901 40267 -32268.4
8417.24 336.428 283.7 -13638.9 -7303.2
8419.94 94.348 115.629 -48537.7 -8771.77
8422.63 -83.8873 64.4876 35861.4 6462.22
8425.33 183.002 95.6037 32063 8851.02
8428.02 187.696 257.771 -41371.3 -2609.28
8430.71 402.615 301.669 1480.48 -86679
8433.4 314.697 270.11 -220146 -61078.6
8436.1 93.0176 172.353 35429.8 -88176.6
8438.79 109.344 142.081 -79813.5 -6093.63
8441.48 223.881 159.748 26102.8 -27542
8444.17 146.02 164.02 -28915.4 -802.655
8446.86 122.158 143.069 404.67 -10819.8
8449.55 161.03 161.731 -3948.53 -5991.98
8452.24 202.007 213.014 -14432.1 -10215.9
8454.93 276.006 257.219 -12267.1 -216.75
8457.62 293.646 255.031 26049 -6552.09
8460.31 195.443 233.493 -33438.1 -10134.2
8463 211.389 185.364 -23013.3 -8479.97
8465.69 149.261 186.76 31011.5 -14210.5
8468.38 199.629 128.507 -50629.8 -10628.7
8471.07 36.6294 88.4429 -12267.9 -22927.1
8473.76 29.07 76.3568 -5883.75 -36295.9
8476.44 163.371 71.9202 -90736 -58107.3
8479.13 23.3197 134.882 -77702 -60214
8481.82 217.954 115.327 -12204.1 -23162.2
8484.51 104.709 143.391 20419.4 -5827.15
8487.19 107.511 80.8742 -25696.9 1802.35
8489.88 30.4033 70.6273 10684.4 -20400.5
8492.57 73.968 90.5506 -46189 -5346.52
8495.25 167.281 74.6059 19464.9 -6515.2
8497.94 -17.4308 58.5811 7178.41 15887
8500.63 25.8935 -16.1607 21017.7 -4307
8503.31 -56.9448 24.3341 -41117.1 696.111
8506 104.054 66.9776 22187.7 12527
8508.68 153.824 116.85 56510.3 21928.3
8511.37 92.6723 103.694 -12913 20080
8514.05 64.5858 100.923 16642.6 4050.92
8516.73 145.511 129.199 8423.13 -16347
8519.42 177.501 109.052 -74106.7 -30065.9
8522.1 4.14344 77.0378 -24514.1 -35708.6
8524.78 49.4687 68.1402 -8504.93 -22915.9
8527.47 150.808 99.0669 -35728.7 -7578.58
8530.15 96.9236 152.518 21497.9 -9862.74
8532.83 209.822 126.236 -15357.4 -325.482
8535.52 71.9624 91.7069 -7116.96 18369.9
8538.2 -6.66372 51.7083 77584.2 40143.7
8540.88 89.8262 35.1609 49963.8 45637.5
8543.56 22.3203 111.765 9364.44 28681.4
8546.24 223.149 136.1 26715.9 11138.9
8548.92 162.829 212.899 -2663.63 8660.16
8551.6 252.719 161.321 1928.18 -14216.2
8554.28 68.4155 127.113 -41913.1 -8369.84
8556.96 60.2051 73.8615 14875.4 -2876.21
8559.64 92.9639 99.7244 18409.1 20833
8562.32 146.004 134.656 29214.6 9729.37
8565 165.001 182.202 -18435.6 -6465.4
8567.68 235.601 192.159 -30175.2 -11458.3
8570.36 175.876 235.762 14235.8 -15510.3
8573.04 295.811 241.276 -30591.6 -12291.1
8575.72 252.142 228.01 -20517.6 -20714.5
8578.39 136.077 134.466 -11034.2 -1022.9
8581.07 15.1779 150.037 28483.1 6651.63
8583.75 298.857 150.024 2505.99 5969.15
8586.42 136.037 226.669 -13081.6 6043.88
8589.1 245.112 181.162 28707.3 3021.81
8591.78 162.338 192.87 -6560.22 14337.9
8594.45 171.159 136.637 20866.7 4543.7
8597.13 76.4152 194.579 -675.394 6617.71
8599.81 336.162 191.822 -338.186 -3418.08
8602.48 162.889 284.294 -9240.66 -7245.24
8605.16 353.831 194.229 -12156.9 -6792.13
8607.83 65.968 199.115 1021.14 -3878.19
8610.5 177.545 161.093 -498.821 1846.81
8613.18 239.765 204.447 5018.1 5124.33
8615.85 196.032 181.628 10853.7 9767.51
8618.53 109.087 177.879 13430.7 3220.2
8621.2 228.517 182.526 -14623.8 -2462.04
8623.87 209.975 207.09 -6193.01 -6154.68
8626.55 182.779 232.062 2352.78 -2579.74
8629.22 303.434 222.441 -3898.99 -3343.26
8631.89 181.109 250.524 -8483.58 -6759.57
8634.56 267.028 242.39 -7896.14 -4721.32
8637.23 279.033 249.982 2215.76 -2653.23
8639.91 203.884 191.252 -2279.31 -1057.26
8642.58 90.8389 129.962 -3108.23 -3904.46
8645.25 95.1635 90.5886 -6325.86 -6972.11
8647.92 85.7634 94.18 -11482.3 -5965.9
8650.59 101.613 143.432 -89.5768 -4880.76
8653.26 242.92 163.803 -3070.44 -4984.34
8655.93 146.877 183.29 -11793 -8880.07
8658.6 160.072 142.24 -11776.8 -10106.8
8661.27 119.771 132.21 -6750.52 -6920.51
8663.94 116.788 163.489 -2234.22 -4475.08
8666.6 253.908 176.827 -4440.49 -1430.05
8669.27 159.786 163.155 2384.56 -4636.23
8671.94 75.7722 148.277 -11852.8 -871.841
8674.61 209.272 105.362 6852.69 -1930.52
8677.28 31.0404 70.6537 -791.481 13875.1
8679.94 -28.3513 68.0337 35564 -1222.43
8682.61 201.412 82.5739 -38439.8 14859
8685.28 74.661 176.709 47452.9 -8119.44
8687.94 254.054 211.511 -33371.4 6783.93
8690.61 305.818 269.316 6270.33 -13286.8
8693.27 248.075 257.566 -12759.4 1614.47
8695.94 218.804 222.347 11332.5 2120.32
8698.61 200.161 197.048 7787.91 985.545
8701.27 172.179 243.51 -16163.8 12103
8703.93 358.188 250.928 44685 -1508.03
8706.6 222.416 261.283 -33045.3 2588.75
8709.26 203.244 226.011 -3873.42 -12033.4
8711.93 252.374 210.614 818.564 4114.39
8714.59 176.224 214.262 15398 9824.17
8717.25 214.189 192.051 13255.9 -11653.3
8719.92 185.741 233.574 -63613.9 5855.13
8722.58 300.794 274.524 67923.3 -1958.6
8725.24 337.038 297.158 -10185.3 2910.78
8727.9 253.641 263.551 -49005.7 3147.88
8730.57 199.973 217.056 68634.6 -3348.78
8733.23 197.554 173.865 -29675.3 2588.85
8735.89 124.069 181.118 -31192.8 -12122
8738.55 221.732 150.636 24502.1 19573.1
8741.21 106.108 202.342 65410.1 -16277.9
8743.87 279.186 240.209 -138746 23770.3
8746.53 335.331 294.59 144647 -15974.1
8749.19 269.253 284.646 -53823.2 28647.8
8751.85 249.353 237.105 -4880.36 -18943.2
8754.51 192.708 246.274 1873.82 3487.97
8757.17 296.762 286.69 13470.5 -12874.7
8759.83 370.599 292.032 -53968.2 31145.2
8762.48 208.735 296.198 133933 -47208.9
8765.14 309.26 313.448 -221592 26103.8
8767.8 422.349 368.472 165970 -65749.7
8770.46 373.808 356.403 -141627 44792.2
8773.12 273.054 276.856 110034 -29364.4
8775.77 183.708 252.358 -56499.9 12811.3
8778.43 300.311 291.795 -15100.1 -2830.84
8781.08 391.365 299.932 63107.6 -11515.8
8783.74 208.12 206.869 -82554.9 14925.4
8786.4 21.122 186.539 64223.4 -14673.7
8789.05 330.375 184.196 -25689.7 11329.4
8791.71 201.091 291.948 -4545.51 834.514
8794.36 344.378 256.398 32738.8 21579.7
8797.02 223.725 270.603 36545.8 -9377.99
8799.67 243.707 216.05 -97418.6 573.636
8802.33 180.72 223.392 62593.7 -34122.4
8804.98 245.751 188.949 -67542.3 3720.09
8807.63 140.376 214.956 16108.9 -1356.86
8810.29 258.743 236.341 47362.8 3341.76
8812.94 309.904 278.398 -53446.4 -5090.67
8815.59 266.547 237.781 -9188.39 -11231.1
8818.24 136.892 177.182 28941.5 -4289.44
8820.89 128.108 138.908 -32621.4 1736.2
8823.55 151.724 229.392 8888.54 4749.28
8826.2 408.344 320.66 37980.7 5091.73
8828.85 401.913 406.602 -31594 -77920.2
8831.5 409.549 326.417 -240147 7420.32
8834.15 167.789 285.54 294002 -7178.35
8836.8 279.284 276.088 -75390.1 71169.9
8839.45 381.192 332.186 -5102.56 -53844.5
8842.1 336.081 296.286 -81040.7 -18366.9
8844.75 171.586 213.112 31042.5 -28568.7
8847.4 131.668 162.832 -35707.8 -10025.6
8850.05 185.242 186.377 -25411.4 -3911.59
8852.7 242.223 225.453 49384.5 -13567.8
8855.34 248.896 228.6 -64676.4 2472.11
8857.99 194.681 226.922 22708.2 5653.47
8860.64 237.189 204.259 58928.6 -13712.8
8863.29 180.908 184.377 -122775 -16474
8865.93 135.034 211.499 14424.9 -23692.5
8868.58 318.555 252.608 37273 -5393.52
8871.23 304.233 272.523 -67878.5 -5514.7
8873.87 194.782 236.211 14061.3 -21740.8
8876.52 209.617 204.717 -11405.4 -550.703
8879.16 209.751 149.244 -4308.04 9484.77
8881.81 28.3621 130.275 44167.8 11737.6
8884.45 152.711 207.149 -4646.95 28491.8
8887.1 440.373 285.673 45954.5 7895.99
8889.74 263.935 301.612 -17619.6 24175.9
8892.39 200.528 160.93 44192.7 15682.8
8895.03 18.3266 95.1511 20475.3 24061.6
8897.67 66.5989 126.067 7516.77 2246.7
8900.32 293.276 263.075 -21252 -2554.69
8902.96 429.349 256.574 6071.19 -879.954
8905.6 47.0982 250.883 12541 8981.78
8908.24 276.203 167.39 8333.19 -5758.5
8910.89 178.867 209.171 -38149.7 -9595.63
8913.53 172.444 154.257 1029.58 -7201.39
8916.17 111.459 175.231 15515.9 -24365.6
8918.81 241.791 188.684 -89642.1 -8873.83
8921.45 212.802 217.184 47504.8 -18513.5
8924.09 196.959 210.914 -13403.2 -13921.2
8926.73 222.982 152.179 -75865.2 -21768.1
8929.37 36.5971 108.88 23964.1 -4833.21
8932.01 67.0616 90.5568 37401.5 22622.5
8934.65 168.012 154.588 6501.98 10788
8937.29 228.69 172.44 -11539.6 5078.32
8939.93 120.618 216.357 20272.5 -7057.86
8942.56 299.763 224.05 -29906.5 2894.72
8945.2 251.768 256.493 18318.2 -10240.5
8947.84 217.947 211.771 -19133 -1201.53
8950.48 165.599 140.674 -2789.76 -2381.72
8953.11 38.4754 109.639 14777.6 9402.81
8955.75 124.843 157.607 16220.6 877.126
8958.39 309.503 304.613 -28366.8 -8773.77
8961.02 479.493 364.071 -14175.1 279.135
8963.66 303.218 288.431 43379.3 8466.27
8966.3 82.5816 173.319 -3805.41 9555
8968.93 134.159 110.903 -10908.9 -4585.76
8971.57 115.967 123.216 957.057 -4272.78
8974.2 119.522 78.4963 -2866.48 -636.476
