wavelength spectrum_sum 3smoothed_sum spectrum_optimal 3smoothed_optimal
3395.96 631.199 501.89 438.133 355.65
3398.89 874.47 845.75 628.819 602.472
3401.83 1031.58 1005.97 740.464 711.778
3404.77 1111.85 1108.02 766.05 771.437
3407.7 1180.64 1119.81 807.795 766.899
3410.64 1066.94 1105.57 726.851 755.23
3413.57 1069.13 1097.9 731.045 761.223
3416.51 1157.64 1119.1 825.774 784.196
3419.45 1130.55 1135.02 795.768 798.439
3422.38 1116.87 1148.9 773.776 811.858
3425.32 1199.28 1165.69 866.031 826.391
3428.25 1180.92 1145.66 839.366 845.04
3431.19 1056.78 1109.26 829.723 824.357
3434.12 1090.1 1165.86 803.981 877.398
3437.06 1350.7 1221.91 998.489 909.08
3439.99 1224.95 1274.39 924.77 935.308
3442.93 1247.52 1248.68 882.666 896.106
3445.86 1273.57 1288.3 880.882 909.738
3448.8 1343.79 1285.99 965.668 916.724
3451.73 1240.6 1305.08 903.623 939.931
3454.67 1330.86 1293.66 950.501 948.622
3457.6 1309.54 1298.41 991.74 950.966
3460.54 1254.83 1302.2 910.657 967.928
3463.47 1342.24 1295.98 1001.39 955.062
3466.41 1290.85 1295.39 953.142 947.74
3469.34 1253.08 1253.47 888.692 904.419
3472.28 1216.48 1241.74 871.422 899.109
3475.21 1255.66 1283.42 937.211 942.589
3478.15 1378.13 1309.29 1019.13 968.465
3481.08 1294.08 1307.84 949.05 968.952
3484.02 1251.31 1292.15 938.673 953.004
3486.95 1331.05 1296.25 971.288 962.933
3489.88 1306.37 1315.59 978.837 979.688
3492.82 1309.35 1327.22 988.94 998.806
3495.75 1365.94 1362.54 1028.64 1017.33
3498.69 1412.32 1378.97 1034.41 1016.75
3501.62 1358.64 1398.61 987.189 1026.7
3504.55 1424.87 1416.08 1058.48 1053.68
3507.49 1464.74 1506.36 1115.37 1139.9
3510.42 1629.47 1528.41 1245.84 1161.18
3513.36 1491.02 1516.01 1122.34 1136.95
3516.29 1427.54 1441.83 1042.66 1065.57
3519.22 1406.94 1457.12 1031.69 1080.47
3522.16 1536.89 1499.68 1167.07 1127.96
3525.09 1555.2 1550.67 1185.12 1175.88
3528.02 1559.91 1587.58 1175.46 1217.25
3530.96 1647.62 1620.77 1291.17 1240.8
3533.89 1654.78 1601.42 1255.76 1244.15
3536.82 1501.87 1595.14 1185.53 1221.14
3539.76 1628.78 1584.04 1222.14 1211.36
3542.69 1621.47 1619.69 1226.41 1224.52
3545.62 1608.81 1638.21 1225.01 1243.19
3548.55 1684.35 1621.22 1278.15 1219.18
3551.49 1570.5 1651.78 1154.39 1240.35
3554.42 1700.5 1657.39 1288.52 1232.59
3557.35 1701.16 1659.13 1254.88 1254.46
3560.28 1575.71 1594.73 1219.97 1216.72
3563.22 1507.33 1559.11 1175.31 1208.48
3566.15 1594.28 1573.45 1230.17 1226.25
3569.08 1618.73 1584.6 1273.27 1214.31
3572.01 1540.79 1596.23 1139.48 1222.39
3574.95 1629.16 1598.71 1254.41 1218.47
3577.88 1626.18 1639.71 1261.52 1277.1
3580.81 1663.79 1678.81 1315.38 1312.07
3583.74 1746.46 1706.45 1359.29 1340.13
3586.67 1709.1 1702.24 1345.73 1323.86
3589.61 1651.16 1707.85 1266.58 1332.01
3592.54 1763.28 1686.04 1383.73 1311.27
3595.47 1643.66 1701.42 1283.51 1340.58
3598.4 1697.33 1674.11 1354.5 1324.25
3601.33 1681.35 1719.84 1334.74 1365.17
3604.26 1780.85 1767.84 1406.27 1402.32
3607.2 1841.33 1784.68 1465.94 1412.2
3610.13 1731.85 1759.79 1364.4 1386.35
3613.06 1706.19 1759.71 1328.72 1365.7
3615.99 1841.09 1821.4 1403.99 1410.38
3618.92 1916.9 1843.22 1498.44 1433.25
3621.85 1771.67 1830.29 1397.32 1431.47
3624.78 1802.28 1803.77 1398.64 1422.51
3627.71 1837.35 1835 1471.58 1454.04
3630.65 1865.37 1912.09 1491.89 1530.9
3633.58 2033.54 1920.99 1629.24 1532
3636.51 1864.05 1930.61 1474.86 1522.43
3639.44 1894.24 1883.05 1463.18 1467.54
3642.37 1890.85 1966.27 1464.59 1531.25
3645.3 2113.74 2003.53 1665.98 1568.97
3648.23 2006 2019.4 1576.35 1589.07
3651.16 1938.46 1947.96 1524.88 1532.32
3654.09 1899.42 1926.09 1495.72 1515.93
3657.02 1940.41 1956.47 1527.2 1555.37
3659.95 2029.58 1991.98 1643.19 1578.64
3662.88 2005.96 2006.74 1565.54 1598.01
3665.81 1984.68 1981.6 1585.31 1547.2
3668.74 1954.15 2024.89 1490.75 1593.4
3671.67 2135.83 2037.63 1704.12 1594.44
3674.6 2022.91 2072.75 1588.45 1641.38
3677.53 2059.51 2050.67 1631.56 1628.46
3680.46 2069.59 2089.75 1665.37 1659.7
3683.39 2140.14 2132.08 1682.16 1711.7
3686.32 2186.52 2143.85 1787.56 1717.83
3689.25 2104.91 2144.51 1683.78 1720.87
3692.18 2142.12 2158.64 1691.27 1713.91
3695.11 2228.91 2224.97 1766.69 1760.42
3698.04 2303.89 2266.13 1823.32 1802.97
3700.97 2265.59 2371.46 1818.91 1915.37
3703.9 2544.9 2393.65 2103.88 1950.68
3706.83 2370.47 2424.99 1929.25 1970.7
3709.75 2359.6 2405.84 1878.97 1930.71
3712.68 2487.45 2444.88 1983.92 1957.34
3715.61 2487.6 2454.67 2009.13 1950.21
3718.54 2388.96 2438.56 1857.59 1957.07
3721.47 2439.12 2426.04 2004.48 1948.85
3724.4 2450.05 2455.07 1984.5 1992.58
3727.33 2476.05 2483.04 1988.78 1988.61
3730.26 2523.04 2546.52 1992.57 2045.67
3733.19 2640.47 2599.92 2155.66 2095.58
3736.11 2636.24 2661.82 2138.52 2147.21
3739.04 2708.75 2636.25 2147.43 2105.46
3741.97 2563.76 2639.44 2030.42 2117.84
3744.9 2645.8 2681.53 2175.68 2166.13
3747.83 2835.03 2731.95 2292.31 2229.77
3750.75 2715.02 2743.48 2221.33 2224.45
3753.68 2680.4 2692.8 2159.72 2175.95
3756.61 2682.97 2619.65 2146.79 2086.47
3759.54 2495.6 2592.36 1952.91 2068.87
3762.47 2598.53 2580.43 2106.91 2083.83
3765.39 2647.16 2616.02 2191.65 2127.3
3768.32 2602.38 2596.59 2083.34 2110.11
3771.25 2540.23 2534.78 2055.34 2059.55
3774.18 2461.75 2533.74 2039.96 2065.97
3777.11 2599.25 2551.55 2102.62 2083.24
3780.03 2593.66 2625.87 2107.14 2142.38
3782.96 2684.72 2622.45 2217.39 2140.32
3785.89 2588.99 2632.05 2096.42 2155.84
3788.81 2622.44 2622.84 2153.72 2133.57
3791.74 2657.09 2665.17 2150.57 2167.36
3794.67 2715.98 2732.2 2197.79 2222.4
3797.6 2823.53 2772.45 2318.82 2253.72
3800.52 2777.85 2829.71 2244.54 2314.04
3803.45 2887.75 2805.81 2378.75 2307.12
3806.38 2751.85 2828.09 2298.08 2352.01
3809.3 2844.67 2850.64 2379.21 2365.64
3812.23 2955.39 2935.3 2419.62 2423.32
3815.16 3005.83 2974.01 2471.13 2447.01
3818.08 2960.79 2953.86 2450.28 2446.1
3821.01 2894.94 2921.16 2416.87 2429.81
3823.94 2907.76 2898.31 2422.27 2416.44
3826.86 2892.24 2920.14 2410.18 2428.81
3829.79 2960.43 2920.94 2453.99 2436.72
3832.72 2910.17 2921.38 2445.99 2432.09
3835.64 2893.54 2933.12 2396.28 2438.81
3838.57 2995.64 3032.71 2474.17 2512.87
3841.49 3208.95 3110.61 2668.15 2570.4
3844.42 3127.24 3256.23 2568.88 2714.6
3847.35 3432.51 3267.62 2906.76 2752.38
3850.27 3243.11 3336.32 2781.49 2824.71
3853.2 3333.35 3310.27 2785.89 2791.73
3856.12 3354.35 3367.83 2807.8 2823.27
3859.05 3415.78 3381.55 2876.1 2810.39
3861.97 3374.52 3406.07 2747.26 2834.47
3864.9 3427.91 3391.83 2880.03 2811.28
3867.82 3373.06 3387.54 2806.54 2829.49
3870.75 3361.65 3305.67 2801.91 2756.19
3873.67 3182.31 3218.78 2660.12 2682.89
3876.6 3112.39 3093.73 2586.64 2585.49
3879.53 2986.49 2969.1 2509.72 2468.68
3882.45 2808.42 2850.24 2309.68 2381.27
3885.38 2755.82 2840.81 2324.42 2387.17
3888.3 2958.21 2863.85 2527.42 2437.41
3891.23 2877.52 2983.85 2460.39 2563.37
3894.15 3115.82 3052.29 2702.31 2642.69
3897.07 3163.53 3244.81 2765.37 2807.15
3900 3455.09 3365.92 2953.79 2894.53
3902.92 3479.14 3532.36 2964.43 3024.31
3905.85 3662.85 3573.76 3154.71 3061.31
3908.77 3579.28 3684.79 3064.8 3169.93
3911.7 3812.25 3803.62 3290.27 3256.43
3914.62 4019.32 3953.97 3414.2 3388.27
3917.55 4030.32 4100.31 3460.32 3497.96
3920.47 4251.29 4197.17 3619.36 3582.07
3923.39 4309.89 4299.43 3666.52 3675.85
3926.32 4337.1 4280.17 3741.67 3668.06
3929.24 4193.51 4252.23 3596 3656.35
3932.17 4226.07 4201.86 3631.4 3603.26
3935.09 4186.01 4166.31 3582.38 3581.44
3938.01 4086.85 4081.84 3530.54 3501.41
3940.94 3972.65 3977.65 3391.32 3406.52
3943.86 3873.46 3896.78 3297.7 3306.12
3946.78 3844.22 3820.98 3229.33 3256.29
3949.71 3745.26 3710.69 3241.83 3170.72
3952.63 3542.58 3516.26 3041 2998.26
3955.55 3260.93 3339.56 2711.95 2842.24
3958.48 3215.16 3134.25 2773.77 2672.26
3961.4 2926.67 2988.95 2531.06 2565.08
3964.32 2825.02 2848.31 2390.39 2433.75
3967.25 2793.23 2849.91 2379.79 2426.51
3970.17 2931.49 2942.71 2509.33 2521.9
3973.09 3103.4 3049.37 2676.58 2633.81
3976.02 3113.22 3188.76 2715.52 2805.15
3978.94 3349.67 3345.32 3023.34 2958
3981.86 3573.08 3502.96 3135.14 3074.4
3984.78 3586.13 3706.73 3064.71 3244.93
3987.71 3960.97 3852.58 3534.94 3342.36
3990.63 4010.63 4083.63 3427.44 3555.96
3993.55 4279.3 4225.07 3705.49 3645.54
3996.47 4385.3 4431.74 3803.69 3873.74
3999.4 4630.61 4572.49 4112.04 4018.2
4002.32 4701.56 4738.8 4138.87 4201.96
4005.24 4884.22 4837.64 4354.96 4283.79
4008.16 4927.16 4928.04 4357.55 4376.85
4011.08 4972.74 4965.61 4418.05 4388.26
4014.01 4996.92 5081.94 4389.18 4458.33
4016.93 5276.15 5222.62 4567.75 4534.96
4019.85 5394.79 5353.71 4647.94 4681.43
4022.77 5390.19 5442.27 4828.58 4777.39
4025.69 5541.84 5491.3 4855.64 4854.64
4028.62 5541.86 5536.8 4879.69 4858.43
4031.54 5526.7 5541.19 4839.97 4885.24
4034.46 5555.01 5570.78 4936.05 4925.01
4037.38 5630.63 5626.19 4999 4982.25
4040.3 5692.92 5588.07 5011.69 4944.53
4043.22 5440.67 5535.58 4822.89 4878.45
4046.14 5473.17 5477.38 4800.78 4840.79
4049.06 5518.3 5470.49 4898.69 4843.99
4051.99 5420.01 5437.54 4832.48 4824.36
4054.91 5374.31 5409.55 4741.92 4784.64
4057.83 5434.33 5320.04 4779.53 4656.53
4060.75 5151.48 5255.07 4448.15 4606.01
4063.67 5179.39 5066.37 4590.36 4452.31
4066.59 4868.25 4971.19 4318.41 4397.1
4069.51 4865.92 4863.32 4282.53 4319.34
4072.43 4855.78 4791.9 4357.07 4260.13
4075.35 4654 4697.38 4140.78 4198.11
4078.27 4582.36 4541.73 4096.49 4050.75
4081.19 4388.82 4374.82 3914.97 3886.21
4084.11 4153.26 4121.45 3647.18 3649.87
4087.03 3822.25 3863.84 3387.48 3373.18
4089.95 3616.02 3622.55 3084.88 3156.59
4092.87 3429.38 3393.59 2997.41 2916.63
4095.79 3135.35 3186.75 2667.59 2753.6
4098.71 2995.51 3070.4 2595.78 2684.88
4101.63 3080.35 3103.31 2791.28 2776.1
4104.55 3234.08 3205.29 2941.23 2872.22
4107.47 3301.44 3366.06 2884.17 3037.08
4110.39 3562.65 3552.32 3285.85 3185.94
4113.31 3792.86 3766.77 3387.81 3427.23
4116.23 3944.81 3959.5 3608.04 3565.72
4119.15 4140.82 4190.62 3701.32 3773.3
4122.07 4486.22 4395.49 4010.55 3952.11
4124.99 4559.44 4564.14 4144.46 4090.53
4127.91 4646.78 4674.73 4116.58 4218.48
4130.83 4817.98 4844.41 4394.41 4358.04
4133.75 5068.46 5027.95 4563.12 4602.51
4136.66 5197.41 5232.38 4850.01 4767.4
4139.58 5431.26 5406.09 4889.07 4947.29
4142.5 5589.6 5548.61 5102.8 5041.2
4145.42 5624.97 5710.77 5131.74 5231.61
4148.34 5917.75 5834.7 5460.3 5344.63
4151.26 5961.38 6022.1 5441.87 5518.34
4154.18 6187.17 6110.53 5652.86 5573.54
4157.1 6183.04 6268.6 5625.88 5706.09
4160.01 6435.59 6284.28 5839.52 5702.05
4162.93 6234.21 6427.53 5640.75 5834.46
4165.85 6612.77 6523.37 6023.13 5964.6
4168.77 6723.12 6681.75 6229.92 6124.08
4171.69 6709.36 6730.62 6119.2 6170.44
4174.61 6759.38 6790.92 6162.19 6208.19
4177.52 6904.01 6863.47 6343.19 6282.05
4180.44 6927.03 6917.62 6340.78 6338.28
4183.36 6921.81 6978.91 6330.88 6409.11
4186.28 7087.9 7039.54 6555.66 6463.01
4189.19 7108.91 7170.64 6502.49 6589.39
4192.11 7315.12 7218.33 6710.01 6631.78
4195.03 7230.98 7228.17 6682.83 6635.14
4197.95 7138.4 7254.82 6512.59 6667.69
4200.86 7395.08 7295.14 6807.64 6688.48
4203.78 7351.93 7348.8 6745.21 6753.93
4206.7 7299.37 7386.57 6708.95 6786.13
4209.62 7508.39 7372.81 6904.23 6793.63
4212.53 7310.67 7451.39 6767.7 6846.59
4215.45 7535.1 7339.16 6867.84 6745.64
4218.37 7171.71 7404.69 6601.39 6798.29
4221.28 7507.26 7367.69 6925.63 6795.03
4224.2 7424.11 7515.11 6858.07 6924.89
4227.12 7613.98 7477.98 6990.98 6895.26
4230.04 7395.87 7434.35 6836.74 6903.87
4232.95 7293.19 7376.56 6883.88 6876
4235.87 7440.62 7402.42 6907.37 6915.1
4238.78 7473.45 7429.28 6954.05 6897.16
4241.7 7373.76 7362.89 6830.06 6831.38
4244.62 7241.47 7433.64 6710.02 6886.05
4247.53 7685.7 7445.59 7118.06 6924.14
4250.45 7409.59 7491.15 6944.33 6982.76
4253.37 7378.14 7415.36 6885.89 6882.82
4256.28 7458.34 7386.4 6818.25 6846.16
4259.2 7322.71 7421.07 6834.33 6844.4
4262.11 7482.17 7396.51 6880.61 6847.66
4265.03 7384.66 7402.93 6828.03 6833.52
4267.95 7341.97 7358.09 6791.93 6835.03
4270.86 7347.63 7256.13 6885.12 6770.98
4273.78 7078.8 7183.89 6635.88 6732.52
4276.69 7125.23 7080.56 6676.56 6628.24
4279.61 7037.66 7069.52 6572.28 6626.08
4282.52 7045.67 6997.8 6629.39 6545.47
4285.44 6910.07 6871.88 6434.74 6454.78
4288.35 6659.91 6730.99 6300.21 6298.71
4291.27 6623 6585.86 6161.17 6199.49
4294.18 6474.68 6502.31 6137.1 6106.7
4297.1 6409.26 6442.88 6021.83 6063.57
4300.01 6444.69 6317.47 6031.77 5914.97
4302.93 6098.46 6162.76 5691.32 5763.15
4305.84 5945.13 5913.24 5566.36 5529.93
4308.76 5696.13 5787.95 5332.12 5437.02
4311.67 5722.59 5647.42 5412.59 5283.65
4314.59 5523.55 5472.72 5106.23 5080.02
4317.5 5172.01 5279.76 4721.26 4851.74
4320.42 5143.72 5039 4727.72 4641.4
4323.33 4801.26 4829.56 4475.21 4489.17
4326.25 4543.69 4547.63 4264.59 4222.59
4329.16 4297.93 4293.37 3927.98 3936.77
4332.07 4038.5 4025.54 3617.73 3638.01
4334.99 3740.2 3806.26 3368.3 3463.17
4337.9 3640.08 3671.32 3403.49 3380.26
4340.82 3633.69 3644.86 3368.98 3388.99
4343.73 3660.83 3703.06 3394.49 3452.92
4346.64 3814.66 3925.71 3595.28 3649.64
4349.56 4301.63 4097.78 3959.16 3863.45
4352.47 4177.06 4359.43 4035.91 4104.46
4355.39 4599.6 4506.16 4318.3 4305.78
4358.3 4741.84 4708.72 4563.13 4511.58
4361.21 4784.73 4856.7 4653.31 4687.97
4364.13 5043.52 5070.51 4847.47 4887.78
4367.04 5383.27 5355.73 5162.56 5158.17
4369.95 5640.41 5618.15 5464.48 5394.6
4372.87 5830.77 5766.03 5556.75 5535.13
4375.78 5826.9 5916.58 5584.17 5667.12
4378.69 6092.08 6075.49 5860.43 5833.88
4381.6 6307.48 6240.97 6057.05 6031.56
4384.52 6323.34 6422.11 6177.21 6213.6
4387.43 6635.51 6515.59 6406.54 6307.58
4390.34 6587.92 6636.2 6338.98 6392.32
4393.26 6685.17 6750.32 6431.44 6498.02
4396.17 6977.87 6912.67 6723.64 6648.64
4399.08 7074.96 7079.81 6790.83 6830.6
4401.99 7186.61 7205.06 6977.33 6938.51
4404.91 7353.6 7299.66 7047.38 7063.53
4407.82 7358.78 7373.93 7165.88 7147.92
4410.73 7409.43 7431.93 7230.49 7231.05
4413.64 7527.59 7525.33 7296.79 7301.91
4416.55 7638.96 7570.72 7378.44 7325.97
4419.47 7545.61 7604.98 7302.68 7381.27
4422.38 7630.37 7587.44 7462.7 7400.14
4425.29 7586.33 7665.41 7435.03 7466.28
4428.2 7779.52 7754.78 7501.11 7496.48
4431.11 7898.5 7845.6 7553.3 7583.84
4434.02 7858.78 7855.64 7697.12 7643.62
4436.94 7809.65 7871.63 7680.43 7695.47
4439.85 7946.47 7919.86 7708.86 7716.18
4442.76 8003.47 7971.29 7759.24 7744.36
4445.67 7963.94 7924.81 7764.98 7696.49
4448.58 7807.01 7954.5 7565.25 7743.68
4451.49 8092.55 7979.61 7900.8 7780.66
4454.4 8039.26 8029.09 7875.92 7867.05
4457.31 7955.45 8012.11 7824.43 7869.3
4460.23 8041.61 8051.92 7907.54 7889.68
4463.14 8158.69 8104.88 7937.07 7905.65
4466.05 8114.34 8175.44 7872.33 7956.72
4468.96 8253.29 8090.19 8060.76 7887.76
4471.87 7902.93 8070.19 7730.19 7897.94
4474.78 8054.34 7975.09 7902.89 7803.71
4477.69 7968.01 8058.68 7778.05 7884.72
4480.6 8153.69 8150.08 7973.23 7983.74
4483.51 8328.55 8240.06 8199.93 8083.81
4486.42 8237.94 8282.55 8078.27 8141.47
4489.33 8281.16 8277.6 8146.23 8125.19
4492.24 8313.7 8290.62 8151.07 8140.57
4495.15 8277 8343.97 8124.41 8231.46
4498.06 8441.21 8360.17 8418.9 8266.4
4500.97 8362.3 8306.7 8255.88 8270.08
4503.88 8116.59 8246.45 8135.45 8180.03
4506.79 8260.46 8249.18 8148.75 8160.96
4509.7 8370.49 8324.05 8198.67 8182.77
4512.61 8341.2 8354.75 8200.89 8210.77
4515.52 8352.56 8351.43 8232.75 8217.67
4518.43 8360.52 8387.11 8219.36 8295.81
4521.34 8448.24 8397.32 8435.31 8317.13
4524.25 8383.18 8392.51 8296.72 8374.06
4527.16 8346.1 8198.16 8390.15 8277.6
4530.07 7865.2 8093.68 8145.92 8273.1
4532.97 8069.75 7944.69 8283.25 8179.6
4535.88 7899.11 7977.02 8109.62 8248.33
4538.79 7962.2 7902.48 8352.11 8167.47
4541.7 7846.13 7875.47 8040.68 8178.34
4544.61 7818.07 7878.65 8142.24 8194.47
4547.52 7971.76 7984.26 8400.5 8314.34
4550.43 8162.95 8005.05 8400.29 8330.8
4553.34 7880.44 8010.4 8191.61 8320.28
4556.24 7987.81 8005.42 8368.94 8329.57
4559.15 8148.03 8069.2 8428.16 8369.41
4562.06 8071.77 8041.07 8311.12 8308.22
4564.97 7903.43 8013.3 8185.38 8264.31
4567.88 8064.7 7995.68 8296.44 8277.07
4570.78 8018.91 8060.97 8349.4 8364.87
4573.69 8099.29 8091.97 8448.77 8386.08
4576.6 8157.71 8154.82 8360.08 8444.56
4579.51 8207.46 8133.14 8524.84 8410.06
4582.42 8034.25 8148.73 8345.25 8477.14
4585.32 8204.5 8073.61 8561.33 8390.36
4588.23 7982.1 8010.86 8264.51 8359.92
4591.14 7845.98 8003.15 8253.9 8319.94
4594.05 8181.38 8097.26 8441.4 8403.16
4596.95 8264.41 8153.62 8514.19 8434.38
4599.86 8015.05 8114.17 8347.55 8413.59
4602.77 8063.03 8133.3 8379.03 8486.38
4605.67 8321.82 8143.31 8732.55 8498.51
4608.58 8045.08 8177.69 8383.96 8531.46
4611.49 8166.16 8078.9 8477.87 8409.37
4614.4 8025.44 8079.87 8366.3 8455.37
4617.3 8048 8013.86 8521.95 8432.39
4620.21 7968.14 8059.76 8408.92 8460.58
4623.12 8163.14 8060.21 8450.87 8414.05
4626.02 8049.35 8065.25 8382.35 8392.79
4628.93 7983.24 8063.75 8345.13 8413.12
4631.84 8158.65 8055.32 8511.88 8427.05
4634.74 8024.08 8095.3 8424.13 8523.04
4637.65 8103.17 8082.91 8633.12 8519.05
4640.55 8121.48 8073.64 8499.89 8510.22
4643.46 7996.26 7995.22 8397.64 8374.53
4646.37 7867.92 8019.11 8226.06 8381.71
4649.27 8193.15 8029.94 8521.44 8410.48
4652.18 8028.75 8157.04 8483.96 8518.51
4655.08 8249.21 8214.46 8550.13 8605.43
4657.99 8365.43 8264.64 8782.21 8667.82
4660.9 8179.3 8254.68 8671.12 8733.06
4663.8 8219.33 8207.18 8745.85 8704.61
4666.71 8222.92 8181.89 8696.86 8664.06
4669.61 8103.44 8204.43 8549.47 8631.4
4672.52 8286.94 8205.92 8647.89 8586.93
4675.42 8227.39 8246.52 8563.44 8700.53
4678.33 8225.25 8115.9 8890.25 8639.81
4681.23 7895.06 8028.4 8465.73 8609
4684.14 7964.91 8041.32 8471.01 8538.85
4687.04 8263.99 8136.32 8679.81 8574.49
4689.95 8180.05 8198.28 8572.64 8601.93
4692.85 8150.8 8097.58 8553.34 8533.37
4695.76 7961.88 8021.97 8474.12 8500.49
4698.66 7953.22 8011.68 8474.02 8526.19
4701.57 8119.95 8130.49 8630.42 8659.38
4704.47 8318.29 8150.28 8873.7 8663.82
4707.37 8012.6 8172.91 8487.32 8680.85
4710.28 8187.84 8153.45 8681.54 8655.56
4713.18 8259.9 8150.61 8797.82 8708.56
4716.09 8004.09 8082.45 8646.33 8675.75
4718.99 7983.35 8055.97 8583.09 8627.11
4721.89 8180.48 8033.96 8651.92 8546.36
4724.8 7938.06 8023.1 8404.08 8551.64
4727.7 7950.76 7922.19 8598.92 8497.62
4730.61 7877.74 7922.71 8489.87 8528.47
4733.51 7939.63 7897.25 8496.62 8414.07
4736.41 7874.39 7854.47 8255.71 8317.12
4739.32 7749.39 7836.69 8199.03 8309.45
4742.22 7886.28 7822.11 8473.61 8344
4745.12 7830.65 7818.12 8359.35 8374.55
4748.03 7737.42 7751.76 8290.69 8284.14
4750.93 7687.22 7702.77 8202.38 8251.61
4753.83 7683.67 7649.34 8261.76 8215.21
4756.74 7577.12 7604.67 8181.5 8166.25
4759.64 7553.22 7608.27 8055.5 8180.61
4762.54 7694.47 7593.5 8304.82 8175.4
4765.44 7532.83 7539.48 8165.87 8135.05
4768.35 7391.16 7445.43 7934.46 8002.36
4771.25 7412.31 7391.04 7906.74 7918.05
4774.15 7369.65 7416.2 7912.94 7947.46
4777.05 7466.65 7419.3 8022.7 8013.38
4779.96 7421.61 7344.42 8104.5 7926.15
4782.86 7145.01 7230.23 7651.23 7803.66
4785.76 7124.08 7166.89 7655.24 7726.93
4788.66 7231.59 7084.73 7874.32 7683.33
4791.57 6898.51 7038.25 7520.41 7629.25
4794.47 6984.65 6891.67 7493.03 7445.63
4797.37 6791.83 6771.35 7323.45 7331.29
4800.27 6537.56 6666 7177.4 7250.04
4803.17 6668.62 6681.8 7249.26 7255.88
4806.07 6839.23 6678.85 7340.98 7215.53
4808.98 6528.7 6596.68 7056.33 7096.26
4811.88 6422.1 6401.74 6891.46 6926.31
4814.78 6254.42 6244.67 6831.15 6751.57
4817.68 6057.48 6184.26 6532.09 6670.68
4820.58 6240.89 6034.2 6648.79 6496.96
4823.48 5804.23 5936.53 6310 6399.72
4826.38 5764.45 5759.43 6240.36 6204.05
4829.28 5709.6 5626.21 6061.8 6045.46
4832.19 5404.57 5499.96 5834.23 5909.76
4835.09 5385.7 5313.76 5833.25 5741.81
4837.99 5151 5158.99 5557.96 5617.22
4840.89 4940.27 5000.62 5460.45 5447.79
4843.79 4910.58 4870.36 5324.96 5294.85
4846.69 4760.21 4729.66 5099.14 5107.59
4849.59 4518.19 4570.69 4898.68 4920.06
4852.49 4433.66 4282.69 4762.35 4626.85
4855.39 3896.22 4029.35 4219.51 4344.33
4858.29 3758.17 3771.12 4051.13 4051.2
4861.19 3658.97 3694.1 3882.95 3978.64
4864.09 3665.16 3700.24 4001.83 4039.34
4866.99 3776.58 3874.78 4233.25 4291.34
4869.89 4182.61 4043.07 4638.94 4500.3
4872.79 4170.03 4245.42 4628.71 4689.64
4875.69 4383.61 4369.14 4801.28 4836.94
4878.59 4553.79 4580.96 5080.82 5056.43
4881.49 4805.47 4792.28 5287.19 5301.57
4884.39 5017.58 4991.6 5536.7 5482.81
4887.29 5151.76 5082.38 5624.53 5635.05
4890.19 5077.79 5208.52 5743.93 5789.66
4893.08 5396 5325.79 6000.51 5956.08
4895.98 5503.59 5486.82 6123.81 6117.32
4898.88 5560.87 5576.39 6227.64 6236.03
4901.78 5664.71 5692.23 6356.65 6370.77
4904.68 5851.1 5845.04 6528.01 6511.18
4907.58 6019.3 5934.75 6648.87 6612.83
4910.48 5933.86 6036.22 6661.62 6733.98
4913.38 6155.52 6119.99 6891.44 6854.51
4916.27 6270.59 6327.75 7010.47 7042.26
4919.17 6557.13 6471.85 7224.87 7207.94
4922.07 6587.84 6566.53 7388.46 7245.54
4924.97 6554.61 6610.31 7123.28 7314.94
4927.87 6688.48 6654.05 7433.09 7302.04
4930.77 6719.05 6778.47 7349.75 7478.78
4933.66 6927.89 6887.84 7653.5 7600.94
4936.56 7016.58 7017.88 7799.56 7773.69
4939.46 7109.17 7017.74 7868.01 7824.75
4942.36 6927.48 6958.26 7806.67 7785.47
4945.25 6838.12 6858.8 7681.74 7732.05
4948.15 6810.8 6917.69 7707.74 7757.28
4951.05 7104.14 7006.99 7882.37 7843.48
4953.95 7106.04 7095.56 7940.33 7933.11
4956.84 7076.51 7089.88 7976.63 7939.18
4959.74 7087.08 7149.42 7900.58 7983.07
4962.64 7284.67 7161.35 8072 7988.93
4965.53 7112.3 7247.53 7994.2 8067.02
4968.43 7345.63 7283.55 8134.84 8158.58
4971.33 7392.74 7421.76 8346.7 8294.88
4974.23 7526.91 7383.43 8403.09 8276.74
4977.12 7230.66 7320.34 8080.42 8201.32
4980.02 7203.47 7222.34 8120.43 8102.98
4982.92 7232.89 7314.25 8108.09 8236.7
4985.81 7506.38 7387.69 8481.57 8309.12
4988.71 7423.79 7496.83 8337.7 8394.06
4991.6 7560.31 7464.68 8362.91 8323.11
4994.5 7409.94 7480.3 8268.72 8330.2
4997.4 7470.64 7476.92 8358.96 8384.47
5000.29 7550.18 7458.11 8525.73 8397.51
5003.19 7353.5 7475.62 8307.83 8450.1
5006.08 7523.19 7482.89 8516.73 8432.27
5008.98 7571.97 7574.56 8472.24 8528.93
5011.88 7628.53 7640.28 8597.83 8581.11
5014.77 7720.35 7614.18 8673.27 8594.16
5017.67 7493.65 7643.21 8511.38 8595.66
5020.56 7715.62 7514.19 8602.32 8477.45
5023.46 7333.29 7519.33 8318.65 8499.88
5026.35 7509.08 7397.67 8578.66 8415.81
5029.25 7350.64 7482.8 8350.1 8482.81
5032.14 7588.68 7511.16 8519.67 8486.24
5035.04 7594.17 7563.4 8588.93 8545.09
5037.93 7507.35 7560.66 8526.68 8515.23
5040.83 7580.45 7484.95 8430.09 8429.68
5043.72 7367.05 7512.29 8332.28 8466.36
5046.62 7589.37 7463.33 8636.7 8468.07
5049.51 7433.57 7590.05 8435.22 8586.26
5052.4 7747.21 7641.23 8686.88 8619.01
5055.3 7742.92 7695.91 8734.92 8683.42
5058.19 7597.61 7651.86 8628.46 8681.32
5061.09 7615.05 7658.31 8680.57 8680.22
5063.98 7762.26 7672.11 8731.63 8701.79
5066.88 7639.03 7674.6 8693.18 8697.61
5069.77 7622.51 7604.53 8668.02 8628.88
5072.66 7552.06 7578.67 8525.44 8608.67
5075.56 7561.43 7527.93 8632.55 8562.5
5078.45 7470.29 7539.78 8529.5 8616.7
5081.34 7587.6 7557.83 8688.05 8642.08
5084.24 7615.6 7669.44 8708.68 8736.54
5087.13 7805.12 7680.36 8812.9 8719.62
5090.02 7620.36 7733.77 8637.29 8747.85
5092.92 7775.83 7712.15 8793.36 8735.29
5095.81 7740.25 7716.02 8775.21 8744.43
5098.7 7631.97 7686.6 8664.73 8713.23
5101.6 7687.58 7663.11 8699.75 8709.55
5104.49 7669.77 7693.14 8764.17 8792.54
5107.38 7722.08 7623.3 8913.7 8768.43
5110.27 7478.03 7582.19 8627.41 8723.21
5113.17 7546.47 7569.6 8628.53 8653.9
5116.06 7684.31 7590.49 8705.75 8655.38
5118.95 7540.7 7549.33 8631.86 8622.27
5121.84 7422.98 7578.76 8529.18 8636.84
5124.74 7772.6 7590.63 8749.47 8694.15
5127.63 7576.31 7623.19 8803.8 8703.46
5130.52 7520.66 7499.3 8557.1 8646.57
5133.41 7400.94 7533.42 8578.81 8620.05
5136.3 7678.68 7532.71 8724.24 8639.38
5139.2 7518.5 7591.04 8615.1 8687.45
5142.09 7575.96 7572.86 8723.03 8696.75
5144.98 7624.12 7578.55 8752.12 8708
5147.87 7535.59 7559.78 8648.84 8702.68
5150.76 7519.64 7533.96 8707.07 8648.79
5153.65 7546.64 7518.13 8590.46 8630.71
5156.54 7488.11 7507.31 8594.62 8627.88
5159.44 7487.17 7560.27 8698.57 8707.35
5162.33 7705.52 7482.74 8828.87 8625.08
5165.22 7255.52 7546.66 8347.81 8668.15
5168.11 7678.94 7469.92 8827.76 8619.72
5171 7475.3 7547.62 8683.59 8742.1
5173.89 7488.61 7478.33 8714.96 8663.52
5176.78 7471.08 7491.3 8592 8639.08
5179.67 7514.21 7515.67 8610.28 8628.55
5182.56 7561.71 7475.89 8683.37 8619.5
5185.45 7351.76 7423.29 8564.86 8593.85
5188.34 7356.41 7336.15 8533.33 8526.32
5191.23 7300.29 7402.26 8480.77 8568.06
5194.12 7550.08 7429.73 8690.07 8623.17
5197.01 7438.84 7472.42 8698.66 8657.29
5199.9 7428.34 7395.76 8583.14 8558.34
5202.79 7320.1 7423.79 8393.2 8571.07
5205.68 7522.92 7415.03 8736.87 8579.95
5208.57 7402.07 7462.33 8609.79 8655.03
5211.46 7461.99 7449.53 8618.42 8610.68
5214.35 7484.54 7433.24 8603.83 8575.76
5217.24 7353.21 7342.52 8505.03 8467.04
5220.13 7189.81 7289.55 8292.27 8399.74
5223.02 7325.64 7258.62 8401.93 8385.68
5225.9 7260.4 7244.16 8462.83 8402.88
5228.79 7146.42 7201.85 8343.89 8400.38
5231.68 7198.73 7175.97 8394.42 8363.33
5234.57 7182.76 7206.42 8351.69 8400.37
5237.46 7237.76 7206.22 8455.01 8391.48
5240.35 7198.13 7168.37 8367.74 8366.16
5243.24 7069.23 7101.53 8275.72 8279.99
5246.13 7037.22 7149.31 8196.51 8305.2
5249.01 7341.49 7187.25 8443.36 8315.14
5251.9 7183.06 7265.79 8305.56 8406.94
5254.79 7272.84 7204.49 8471.9 8376.51
5257.68 7157.57 7178.87 8352.07 8380.12
5260.57 7106.2 7157.53 8316.38 8370.68
5263.45 7208.81 7169.19 8443.57 8395.25
5266.34 7192.57 7229.59 8425.79 8391.44
5269.23 7287.4 7186.31 8304.95 8351.39
5272.12 7078.97 7209.32 8323.42 8340.06
5275 7261.58 7127.51 8391.79 8345.73
5277.89 7041.98 7140.59 8321.97 8357.95
5280.78 7118.22 7144.64 8360.09 8395.19
5283.66 7273.73 7106.64 8503.52 8346.54
5286.55 6927.98 6994.15 8176 8220.02
5289.44 6780.74 7020.71 7980.53 8194.58
5292.33 7353.43 7095.5 8427.21 8253.95
5295.21 7152.33 7217.94 8354.12 8347.85
5298.1 7148.08 7126.04 8262.21 8312.19
5300.99 7077.71 7124.19 8320.24 8309.31
5303.87 7146.79 7031.6 8345.47 8241.11
5306.76 6870.29 7061.45 8057.61 8257.79
5309.64 7167.27 7075.22 8370.28 8276.55
5312.53 7188.1 7102.65 8401.75 8291.8
5315.42 6952.58 7054.09 8103.36 8190.37
5318.3 7021.58 6990.51 8066.01 8083.51
5321.19 6997.36 7021.98 8081.15 8180.47
5324.07 7047.02 7030.45 8394.26 8264.81
5326.96 7046.97 6999.8 8319.02 8290.22
5329.85 6905.41 6970.6 8157.38 8230.16
5332.73 6959.43 6881.4 8214.08 8136.86
5335.62 6779.38 6880.29 8039.11 8080.8
5338.5 6902.08 6879.77 7989.22 8037.56
5341.39 6957.87 6889.34 8084.34 8027.16
5344.27 6808.08 6852.02 8007.93 8053.44
5347.16 6790.12 6808.38 8068.06 8056.85
5350.04 6826.94 6799.03 8094.56 8060.33
5352.93 6780.02 6896.78 8018.36 8091.77
5355.81 7083.39 6960.1 8162.37 8153.31
5358.7 7016.89 7005.07 8279.19 8189.11
5361.58 6914.91 6883.28 8125.77 8140.47
5364.46 6718.03 6834.67 8016.45 8086.38
5367.35 6871.08 6819.26 8116.91 8128.01
5370.23 6868.66 6886.82 8250.66 8157.44
5373.12 6920.73 6923.63 8104.74 8178.48
5376 6981.51 6928.24 8180.03 8137.68
5378.88 6882.49 6937.37 8128.26 8194.98
5381.77 6948.12 6867.34 8276.64 8145.12
5384.65 6771.41 6851.9 8030.46 8121.09
5387.54 6836.18 6745.11 8056.16 8008.55
5390.42 6627.76 6775.17 7939.04 8063.17
5393.3 6861.58 6814.99 8194.33 8097.03
5396.19 6955.62 6935.14 8157.72 8167.48
5399.07 6988.21 6903.39 8150.4 8146.13
5401.95 6766.34 6846.37 8130.26 8117.09
5404.84 6784.55 6699.07 8070.59 7973.81
5407.72 6546.3 6702.93 7720.56 7957.87
5410.6 6777.93 6742.92 8082.46 7982.45
5413.48 6904.52 6714.82 8144.34 8009.49
5416.37 6461.99 6666.31 7801.66 7942.68
5419.25 6632.4 6595.38 7882.06 7877.44
5422.13 6691.76 6661.29 7948.6 7918.58
5425.01 6659.72 6681.17 7925.09 7941.32
5427.9 6692.05 6710.54 7950.27 7943.13
5430.78 6779.84 6714.86 7954.04 7933.75
5433.66 6672.69 6760.3 7896.94 8008.1
5436.54 6828.37 6764.13 8173.31 8042.71
5439.42 6791.34 6746.49 8057.89 8047.57
5442.31 6619.76 6670.26 7911.5 7968.53
5445.19 6599.69 6677.76 7936.22 7984.09
5448.07 6813.84 6697.37 8104.57 7991.19
5450.95 6678.58 6736.8 7932.79 8000.07
5453.83 6717.99 6607.51 7962.86 7893.52
5456.71 6425.96 6534.12 7784.91 7805.93
5459.59 6458.4 6514.91 7670 7795.31
5462.48 6660.36 6635.56 7931.02 7866.79
5465.36 6787.92 6775.13 7999.37 7992.96
5468.24 6877.12 6722.57 8048.49 7911.34
5471.12 6502.67 6755.9 7686.15 7977.56
5474 6887.91 6675.09 8198.05 7910.76
5476.88 6634.68 6715.02 7848.09 7973.55
5479.76 6622.46 6671.77 7874.51 7878.13
5482.64 6758.18 6630.91 7911.79 7837.03
5485.52 6512.1 6610.68 7724.8 7862.12
5488.4 6561.77 6527.04 7949.78 7813.13
5491.28 6507.24 6566.8 7764.81 7844.41
5494.16 6631.38 6521.31 7818.64 7763.81
5497.04 6425.31 6583.04 7707.99 7852.19
5499.92 6692.43 6555.72 8029.93 7855.79
5502.8 6549.41 6566.88 7829.44 7888.26
5505.68 6458.79 6550.88 7805.4 7820.29
5508.56 6644.45 6554.88 7826.04 7796.97
5511.44 6561.4 6536.33 7759.48 7721.68
5514.32 6403.16 6446.05 7579.51 7672.39
5517.2 6373.58 6459.54 7678.18 7715.65
5520.07 6601.87 6496.12 7889.27 7778.4
5522.95 6512.91 6564.24 7767.76 7803.65
5525.83 6577.94 6601.77 7753.92 7838
5528.71 6714.47 6603.8 7992.32 7839.47
5531.59 6518.97 6581.38 7772.17 7894.08
5534.47 6510.69 6526.37 7917.74 7864.27
5537.35 6549.45 6537.37 7902.89 7918.37
5540.22 6551.95 6567.2 7934.48 7888.09
5543.1 6600.18 6554.12 7826.92 7864.51
5545.98 6510.21 6519.8 7832.13 7815.71
5548.86 6449.01 6501.14 7788.08 7774.73
5551.74 6544.21 6443.78 7703.97 7753.54
5554.61 6338.12 6362.1 7768.56 7674.77
5557.49 6203.97 6376.96 7551.77 7726.55
5560.37 6588.78 6395.56 7859.31 7710.35
5563.25 6393.94 6434.16 7719.99 7723.06
5566.12 6319.75 6416.22 7589.88 7703.72
5569 6534.96 6443.08 7801.3 7669.6
5571.88 6474.51 6508.13 7617.63 7739.77
5574.76 6514.93 6491.65 7800.39 7723.56
5577.63 6485.51 6421.15 7752.65 7718.13
5580.51 6263.01 6388.89 7601.36 7733.22
5583.39 6418.15 6210.4 7845.66 7659.8
5586.26 5950.03 6184.32 7532.38 7654.51
5589.14 6184.77 6195.04 7585.47 7661.66
5592.02 6450.32 6251.51 7867.13 7707.63
5594.89 6119.45 6253.47 7670.28 7731.7
5597.77 6190.64 6075.98 7657.68 7587.03
5600.64 5917.86 6065.22 7433.13 7554.26
5603.52 6087.17 6052.97 7571.96 7540.59
5606.4 6153.88 6122.79 7616.69 7634.6
5609.27 6127.3 6115.62 7715.15 7611.53
5612.15 6065.67 6145.79 7502.74 7627.93
5615.02 6244.4 6147.54 7665.9 7634.04
5617.9 6132.55 6137.04 7733.47 7589.92
5620.77 6034.16 6138.46 7370.39 7598.36
5623.65 6248.66 6095.94 7691.22 7498.5
5626.52 6005.01 6150.96 7433.89 7634.61
5629.4 6199.2 6040.32 7778.72 7577.64
5632.27 5916.74 6089.61 7520.32 7641.29
5635.15 6152.88 6052.78 7624.85 7521.76
5638.02 6088.71 6089.12 7420.11 7520.83
5640.9 6025.77 6068.99 7517.52 7461.15
5643.77 6092.5 6020.65 7445.82 7435.46
5646.65 5943.67 6082.98 7343.04 7395.51
5649.52 6212.77 6075.31 7397.66 7383.67
5652.4 6069.5 6088.52 7410.3 7399.15
5655.27 5983.28 6064.63 7389.48 7451.74
5658.14 6141.12 6079.14 7555.43 7521.42
5661.02 6113 6125.56 7619.36 7551.24
5663.89 6122.54 6082.52 7478.94 7516.68
5666.76 6012.01 6059.52 7451.74 7423.06
5669.64 6044 5995.72 7338.49 7375.4
5672.51 5931.16 5953.66 7335.97 7308.74
5675.38 5885.83 5935.47 7251.77 7315.18
5678.26 5989.42 5973.69 7357.79 7320.17
5681.13 6045.81 5982.26 7350.94 7338.17
5684 5911.56 5907.3 7305.78 7324.4
5686.88 5764.53 5867.7 7316.5 7321.04
5689.75 5927.01 5898.81 7340.86 7359.99
5692.62 6004.9 5941.58 7422.62 7356.66
5695.49 5892.84 5941.68 7306.49 7365.9
5698.37 5927.29 5891.11 7368.59 7263.97
5701.24 5853.2 5891.98 7116.82 7240.62
5704.11 5895.44 5808.71 7236.45 7166.78
5706.98 5677.49 5834.67 7147.06 7217.86
5709.86 5931.08 5822.24 7270.06 7204.65
5712.73 5858.14 5817.59 7196.82 7198.67
5715.6 5663.55 5823.5 7129.13 7263.08
5718.47 5948.82 5799.01 7463.29 7281.61
5721.34 5784.65 5862.15 7252.42 7301.09
5724.21 5852.99 5797.75 7187.57 7175.94
5727.08 5755.61 5745.26 7087.82 7120.9
5729.96 5627.18 5689.18 7087.31 7087.64
5732.83 5684.76 5649.52 7087.78 7032.44
5735.7 5636.63 5644.87 6922.24 7022.14
5738.57 5613.22 5665.14 7056.39 7032.85
5741.44 5745.57 5749.28 7119.92 7180.84
5744.31 5889.05 5789.57 7366.2 7219.91
5747.18 5734.11 5772.75 7173.6 7189.07
5750.05 5695.08 5722.45 7027.41 7110.21
5752.92 5738.17 5718.21 7129.62 7056.96
5755.79 5721.37 5668.31 7013.84 6994.68
5758.66 5545.39 5683.82 6840.58 6990.03
5761.53 5784.68 5572.49 7115.69 6906.15
5764.4 5387.4 5666.69 6762.17 7013
5767.27 5828 5600.33 7161.13 6950.93
5770.14 5585.58 5698.73 6929.5 7042.71
5773.01 5682.6 5698.87 7037.5 7081.65
5775.88 5828.42 5719.58 7277.94 7116.02
5778.75 5647.73 5655.61 7032.61 7120.21
5781.62 5490.67 5542.56 7050.08 6992.38
5784.49 5489.29 5594.05 6894.44 7037.31
5787.36 5802.2 5603.36 7167.42 6984.77
5790.22 5518.59 5630.61 6892.44 6985.24
5793.09 5571.04 5577.59 6895.86 6911.44
5795.96 5643.16 5554.98 6946 6888.6
5798.83 5450.75 5501.38 6823.95 6888.18
5801.7 5410.24 5548.7 6894.58 6893.7
5804.57 5785.11 5596.79 6962.56 6917.45
5807.44 5595.01 5670.48 6895.21 6940.93
5810.3 5631.31 5573.52 6965.02 6915.96
5813.17 5494.24 5598.45 6887.65 6970.97
5816.04 5669.79 5471.13 7060.25 6841.76
5818.91 5249.37 5479.34 6577.4 6811.85
5821.77 5518.87 5425.64 6797.9 6703.77
5824.64 5508.7 5574.91 6736.01 6843.04
5827.51 5697.18 5547.16 6995.22 6829.96
5830.38 5435.61 5587.95 6758.64 6880.33
5833.24 5631.07 5532.64 6887.12 6824.7
5836.11 5531.25 5529.89 6828.33 6817.26
5838.98 5427.33 5598.91 6736.32 6914.68
5841.84 5838.15 5602.63 7179.39 6938.56
5844.71 5542.42 5658.1 6899.97 6960.28
5847.58 5593.72 5475.84 6801.48 6738.58
5850.44 5291.37 5485.96 6514.28 6742.82
5853.31 5572.78 5463.62 6912.7 6779.18
5856.18 5526.72 5559.98 6910.57 6949.13
5859.04 5580.45 5504.22 7024.13 6883.73
5861.91 5405.5 5495.7 6716.48 6872.39
5864.77 5501.14 5437.66 6876.56 6751.03
5867.64 5406.33 5425.18 6660.04 6735.8
5870.51 5368.06 5444.76 6670.79 6718.86
5873.37 5559.9 5414.21 6825.76 6708.16
5876.24 5314.67 5412.34 6627.94 6700.79
5879.1 5362.45 5323.13 6648.68 6591.89
5881.97 5292.27 5320.13 6499.04 6578.31
5884.83 5305.66 5327.85 6587.22 6575.75
5887.7 5385.62 5388.8 6640.99 6648.56
5890.56 5475.12 5359.8 6717.47 6675.83
5893.43 5218.66 5338.7 6669.03 6655.13
5896.29 5322.3 5292.94 6578.88 6644.06
5899.15 5337.84 5321.15 6684.26 6645.85
5902.02 5303.3 5375.04 6674.4 6682.36
5904.88 5483.98 5395.09 6688.42 6687.02
5907.75 5397.99 5465.08 6698.24 6719.64
5910.61 5513.28 5354.1 6772.25 6627.79
5913.48 5151.02 5336.34 6412.89 6554.81
5916.34 5344.73 5277.8 6479.3 6489.86
5919.2 5337.64 5333.12 6577.4 6521.37
5922.07 5317 5236.92 6507.39 6500.28
5924.93 5056.13 5244.73 6416.04 6519.97
5927.79 5361.06 5223.66 6636.48 6546.76
5930.66 5253.8 5278.61 6587.76 6557.97
5933.52 5220.97 5239.65 6449.67 6491.44
5936.38 5244.18 5195.59 6436.88 6451.98
5939.24 5121.62 5178.09 6469.4 6425.81
5942.11 5168.49 5119.69 6371.15 6382.52
5944.97 5068.95 5150.67 6307.01 6387.4
5947.83 5214.58 5169.9 6484.03 6452.69
5950.69 5226.17 5271.91 6567.03 6570.7
5953.56 5374.99 5315.87 6661.04 6543.88
5956.42 5346.46 5254.88 6403.56 6480.2
5959.28 5043.18 5184.37 6376 6413.81
5962.14 5163.48 5093.67 6461.87 6335.49
5965 5074.35 5136.25 6168.61 6359.3
5967.87 5170.93 5198.46 6447.42 6376.49
5970.73 5350.11 5191.14 6513.44 6388.78
5973.59 5052.38 5149.78 6205.47 6308
5976.45 5046.85 5063.79 6205.08 6220.01
5979.31 5092.13 5117.53 6249.46 6300.54
5982.17 5213.6 5130.2 6447.08 6318.63
5985.03 5084.87 5150.75 6259.36 6324.68
5987.89 5153.78 5084.55 6267.59 6225.07
5990.75 5015 5174.64 6148.27 6299.82
5993.61 5355.16 5159.28 6483.61 6322.15
5996.47 5107.69 5173.18 6334.57 6385.94
5999.33 5056.68 5084.85 6339.65 6284.65
6002.19 5090.18 5110.2 6179.73 6283.23
6005.05 5183.73 5128.14 6330.32 6277.41
6007.91 5110.5 5104.4 6322.19 6301.47
6010.77 5018.96 5056.8 6251.89 6289.66
6013.63 5040.93 5014.77 6294.91 6255.34
6016.49 4984.42 4933.96 6219.23 6136.74
6019.35 4776.54 4856.65 5896.08 6011.06
6022.21 4809 4857.75 5917.87 5947.91
6025.07 4987.7 4929.8 6029.77 6003.25
6027.93 4992.69 5024.99 6062.11 6110.52
6030.79 5094.58 5082.55 6239.67 6151.46
6033.65 5160.38 5091.38 6152.61 6186.59
6036.51 5019.19 4993.29 6167.48 6102.54
6039.36 4800.29 4918.22 5987.54 6071.09
6042.22 4935.16 4910.92 6058.27 6060.31
6045.08 4997.31 5003.19 6135.13 6098.62
6047.94 5077.09 4985.11 6102.47 6093.9
6050.8 4880.94 4968.36 6044.09 6077.46
6053.66 4947.06 4943.84 6085.81 6078.01
6056.51 5003.54 4965.85 6104.14 6093.3
6059.37 4946.96 5019.93 6089.96 6113.4
6062.23 5109.29 4891.03 6146.1 6007.21
6065.09 4616.82 4843.37 5785.58 5965.46
6067.94 4804 4770.35 5964.7 5963.51
6070.8 4890.24 4833.49 6140.24 6007.07
6073.66 4806.22 4909.53 5916.27 6082.41
6076.51 5032.11 4902.51 6190.72 5998.95
6079.37 4869.19 4953.89 5889.85 6059.58
6082.23 4960.37 4934.19 6098.17 5988.3
6085.08 4973.01 4917.38 5976.89 5978.98
6087.94 4818.78 4836.28 5861.89 5901.11
6090.8 4717.04 4808.22 5864.55 5934.19
6093.65 4888.84 4816.4 6076.12 5974.65
6096.51 4843.32 4846.94 5983.29 5988.72
6099.36 4808.66 4830.66 5906.74 5926.58
6102.22 4840.01 4855.52 5889.72 5948.71
6105.08 4917.89 4929.81 6049.68 5957.79
6107.93 5031.52 4888.08 5933.99 5943.54
6110.79 4714.84 4831.09 5846.97 5878.7
6113.64 4746.9 4734.78 5855.16 5888.82
6116.5 4742.61 4787.32 5964.34 5935.77
6119.35 4872.47 4772.55 5987.81 5917.96
6122.21 4702.57 4779.73 5801.72 5851.82
6125.06 4764.15 4768.91 5765.94 5820.65
6127.92 4840.01 4773.96 5894.28 5825.46
6130.77 4717.73 4755.56 5816.16 5814.23
6133.62 4708.96 4685.84 5732.26 5740.42
6136.48 4630.83 4662.05 5672.85 5672.29
6139.33 4646.34 4671.22 5611.76 5699.1
6142.19 4736.48 4694 5812.68 5718.22
6145.04 4699.17 4690.52 5730.23 5703.23
6147.89 4635.92 4679.28 5566.79 5707.05
6150.75 4702.76 4646.4 5824.13 5715.53
6153.6 4600.51 4641.75 5755.67 5743.62
6156.45 4621.98 4699.08 5651.06 5782.32
6159.31 4874.75 4749.48 5940.23 5771.1
6162.16 4751.7 4743.78 5722 5798.98
6165.01 4604.9 4677.29 5734.71 5738.39
6167.87 4675.27 4631.7 5758.46 5713.03
6170.72 4614.93 4626.02 5645.92 5631.4
6173.57 4587.86 4583.1 5489.82 5537.76
6176.42 4546.52 4602.8 5477.53 5578.75
6179.28 4674.02 4622.01 5768.9 5675.79
6182.13 4645.5 4640.37 5780.95 5695.54
6184.98 4601.59 4674.4 5536.78 5707.08
6187.83 4776.1 4707.02 5803.5 5649.23
6190.68 4743.38 4759.59 5607.4 5734.08
6193.53 4759.29 4711.67 5791.34 5700.48
6196.39 4632.33 4674.2 5702.69 5802.48
6199.24 4630.99 4601.98 5913.4 5734.7
6202.09 4542.62 4610.97 5588.01 5684.32
6204.94 4659.28 4633.01 5551.54 5611.94
6207.79 4697.14 4624.61 5696.28 5586.33
6210.64 4517.42 4623.57 5511.17 5613.63
6213.49 4656.16 4610.7 5633.44 5587.37
6216.34 4658.53 4667.72 5617.5 5665.38
6219.19 4688.49 4608.24 5745.22 5640.68
6222.04 4477.69 4621.84 5559.33 5644.3
6224.89 4699.33 4610.39 5628.36 5615.43
6227.74 4654.16 4646.54 5658.59 5595.1
6230.59 4586.13 4558.01 5498.35 5492.69
6233.44 4433.75 4560.73 5321.13 5496.24
6236.29 4662.3 4539.39 5669.23 5510.12
6239.14 4522.13 4612.81 5539.99 5635.83
6241.99 4654 4546.88 5698.26 5520.22
6244.84 4464.49 4524.71 5322.41 5483.72
6247.69 4455.65 4438.38 5430.49 5329.07
6250.54 4394.99 4451.78 5234.29 5350.59
6253.39 4504.7 4475.17 5386.99 5367.3
6256.23 4525.82 4471.42 5480.62 5415.77
6259.08 4383.75 4482.47 5379.7 5429.74
6261.93 4537.83 4503.71 5428.91 5411.3
6264.78 4589.54 4549.11 5425.29 5410.57
6267.63 4519.95 4532.37 5377.52 5405.06
6270.48 4487.62 4442.83 5412.37 5337.73
6273.32 4320.91 4397.23 5223.31 5295.58
6276.17 4383.14 4307 5251.05 5181.94
6279.02 4216.95 4354.28 5071.45 5229.44
6281.87 4462.75 4294.72 5365.81 5175.8
6284.71 4204.45 4349.37 5090.14 5278.41
6287.56 4380.9 4326.98 5379.27 5234.66
6290.41 4395.58 4338.72 5234.56 5291.09
6293.25 4239.69 4321.06 5259.43 5243.95
6296.1 4327.9 4247.01 5237.86 5160.02
6298.95 4173.42 4255.25 4982.77 5167.85
6301.79 4264.42 4233.29 5282.92 5155.94
6304.64 4262.03 4282.55 5202.13 5225.9
6307.49 4321.19 4310.15 5192.65 5145.81
6310.33 4347.24 4324.03 5042.66 5134.57
6313.18 4303.66 4334.21 5168.39 5154.88
6316.02 4351.73 4282.45 5253.59 5158.99
6318.87 4191.97 4323.99 5055 5188.9
6321.72 4428.29 4353.82 5258.11 5182.62
6324.56 4441.22 4394.59 5234.76 5219.56
6327.41 4314.26 4355.11 5165.81 5182.81
6330.25 4309.85 4313.2 5147.87 5146
6333.1 4315.49 4296.11 5124.33 5132.37
6335.94 4263 4318.82 5124.9 5132.1
6338.79 4377.98 4313.58 5147.07 5129.71
6341.63 4299.77 4346.06 5117.16 5160.09
6344.47 4360.45 4335.34 5216.04 5165.02
6347.32 4345.81 4286.48 5161.86 5146.61
6350.16 4153.18 4254.27 5061.93 5083.63
6353.01 4263.82 4242.86 5027.11 5069.48
6355.85 4311.57 4305.86 5119.41 5087.37
6358.69 4342.19 4335.43 5115.6 5105.12
6361.54 4352.52 4323.03 5080.35 5079.56
6364.38 4274.36 4271.74 5042.74 5023
6367.22 4188.33 4233.74 4945.92 4989.28
6370.07 4238.53 4186.43 4979.18 4946.84
6372.91 4132.42 4155.46 4915.42 4908.6
6375.75 4095.45 4137.58 4831.21 4896.42
6378.6 4184.87 4238.42 4942.63 4989.55
6381.44 4434.94 4275.64 5194.81 5027.39
6384.28 4207.12 4213.73 4944.72 4964.94
6387.12 3999.14 4106.37 4755.29 4877.35
6389.97 4112.84 4051.3 4932.05 4829.19
6392.81 4041.92 4060.3 4800.22 4818.27
6395.65 4026.14 4058.38 4722.53 4768.97
6398.49 4107.08 4091.13 4784.16 4802.44
6401.33 4140.19 4134.57 4900.63 4863.5
6404.17 4156.44 4139.76 4905.69 4911.98
6407.01 4122.65 4079.47 4929.61 4879.16
6409.86 3959.33 4082.13 4802.16 4861.24
6412.7 4164.41 4072.67 4851.94 4830.73
6415.54 4094.26 4046.61 4838.09 4805.37
6418.38 3881.17 3989.35 4726.09 4764.33
6421.22 3992.63 3992.53 4728.82 4731.34
6424.06 4103.79 3997.95 4739.11 4697.16
6426.9 3897.45 3925.48 4623.56 4637.11
6429.74 3775.22 3883.69 4548.66 4601.76
6432.58 3978.39 3964.34 4633.05 4686.05
6435.42 4139.41 4052.86 4876.44 4726
6438.26 4040.78 4008.06 4668.49 4671.86
6441.1 3844 3939.86 4470.64 4594.36
6443.94 3934.81 3910.09 4643.94 4583.25
6446.78 3951.47 3921.16 4635.17 4607.6
6449.62 3877.19 3898.71 4543.71 4554.91
6452.46 3867.48 3821.38 4485.84 4471.36
6455.29 3719.47 3784.92 4384.52 4437.33
6458.13 3767.81 3759.47 4441.63 4431.13
6460.97 3791.13 3807.79 4467.25 4485.02
6463.81 3864.41 3837.46 4546.18 4476.05
6466.65 3856.83 3839.46 4414.72 4447.06
6469.49 3797.15 3787.31 4380.29 4361.6
6472.32 3707.95 3740.4 4289.78 4354.16
6475.16 3716.12 3730.22 4392.4 4310.42
6478 3766.58 3678.86 4249.07 4260.33
6480.84 3553.88 3671.64 4139.53 4229.41
6483.67 3694.47 3583.34 4299.62 4212.64
6486.51 3501.66 3643.98 4198.77 4275.27
6489.35 3735.83 3596.43 4327.42 4221.65
6492.19 3551.82 3600.17 4138.75 4225.41
6495.02 3512.86 3562.98 4210.05 4162.63
6497.86 3624.26 3561.19 4139.1 4213.31
6500.7 3546.45 3548.64 4290.77 4142.84
6503.53 3475.2 3520.06 3998.65 4126.18
6506.37 3538.52 3498.81 4089.12 4034.13
6509.2 3482.72 3437.67 4014.64 3956.62
6512.04 3291.77 3352.81 3766.09 3897.96
6514.88 3283.94 3258.27 3913.15 3810.24
6517.71 3199.1 3197.68 3751.47 3818.77
6520.55 3110.01 3192.02 3791.7 3804.33
6523.38 3266.95 3179.69 3869.84 3819.76
6526.22 3162.1 3196.93 3797.74 3789.49
6529.05 3161.73 3108.97 3700.9 3701.5
6531.89 3003.08 2979.5 3605.86 3559.8
6534.72 2773.7 2864.27 3372.63 3447.18
6537.56 2816.02 2859.55 3363.06 3416.07
6540.39 2988.94 2842.18 3512.52 3421.38
6543.22 2721.59 2813.07 3388.56 3346.83
6546.06 2728.68 2682.02 3139.39 3191.05
6548.89 2595.8 2686.93 3045.19 3105.74
6551.73 2736.31 2606.01 3132.65 3045.34
6554.56 2485.93 2492.54 2958.19 2961.65
6557.39 2255.37 2316.88 2794.11 2821.36
6560.23 2209.33 2241.11 2711.79 2711.32
6563.06 2258.62 2283.35 2628.06 2716.62
6565.89 2382.11 2349.75 2810 2797.9
6568.73 2408.54 2454.67 2955.63 2933.48
6571.56 2573.38 2549.47 3034.82 2993.9
6574.39 2666.5 2640.65 2991.24 3029.84
6577.22 2682.09 2674.33 3063.45 3066.31
6580.06 2674.42 2742.68 3144.24 3180.79
6582.89 2871.54 2785.06 3334.69 3233.09
6585.72 2809.22 2842.9 3220.34 3283.89
6588.55 2847.93 2886.07 3296.63 3324.31
6591.38 3001.06 2992.84 3455.96 3422.71
6594.21 3129.53 3063.59 3515.54 3525.83
6597.05 3060.2 3137.34 3606.01 3620.93
6599.88 3222.3 3119.58 3741.24 3666.49
6602.71 3076.25 3163.53 3652.22 3698.87
6605.54 3192.05 3186.32 3703.15 3707.34
6608.37 3290.66 3195.7 3766.64 3721.02
6611.2 3104.39 3183.81 3693.28 3694.77
6614.03 3156.38 3186.64 3624.39 3723.79
6616.86 3299.16 3233.05 3853.72 3727
6619.69 3243.6 3335.15 3702.91 3872.76
6622.52 3462.68 3369.01 4061.65 3884.01
6625.35 3400.75 3343.37 3887.46 3938.79
6628.18 3166.68 3304.47 3867.26 3914.4
6631.01 3345.98 3267.14 3988.49 3941.1
6633.84 3288.75 3357.22 3967.55 3975.02
6636.67 3436.93 3313.56 3969.02 3922.66
6639.5 3215.01 3371.11 3831.41 3943.3
6642.33 3461.38 3375.59 4029.47 3960.22
6645.15 3450.38 3428.36 4019.76 4020.29
6647.98 3373.32 3463.06 4011.64 4045.84
6650.81 3565.48 3420.13 4106.11 3995.11
6653.64 3321.59 3457.6 3867.57 3946.95
6656.47 3485.74 3428.73 3867.18 3903.47
6659.3 3478.85 3500.4 3975.65 3963.77
6662.12 3536.62 3555.19 4048.47 4073.71
6664.95 3650.11 3530.36 4197 4069.67
6667.78 3404.34 3569.77 3963.54 4103.97
6670.61 3654.86 3528.13 4151.38 4084.89
6673.43 3525.19 3497.77 4139.76 4054.93
6676.26 3313.27 3504.8 3873.66 4061.92
6679.09 3675.95 3471.24 4172.34 4024.11
6681.91 3424.5 3556.64 4026.34 4068.73
6684.74 3569.49 3492.36 4007.5 4011.9
6687.57 3483.1 3551.15 4001.86 4040.57
6690.39 3600.85 3575.41 4112.33 4076.34
6693.22 3642.3 3578.95 4114.83 4134.45
6696.04 3493.72 3586.9 4176.2 4160.16
6698.87 3624.69 3495.99 4189.46 4084.08
6701.69 3369.55 3513.16 3886.58 4081.36
6704.52 3545.23 3439.83 4168.03 4021.91
6707.35 3404.7 3458.47 4011.13 4046.03
6710.17 3425.5 3479.37 3958.93 4007.06
6713 3607.92 3520.56 4051.12 4002.48
6715.82 3528.27 3536.56 3997.39 4004.41
6718.64 3473.48 3485.79 3964.71 3976.55
6721.47 3455.62 3472.91 3967.56 4002.96
6724.29 3489.64 3479.48 4076.6 3991.7
6727.12 3493.17 3500.21 3930.93 3993.75
6729.94 3517.81 3460.35 3973.72 3953.99
6732.76 3370.08 3436.2 3957.32 3973.06
6735.59 3420.7 3445.34 3988.13 3995.68
6738.41 3545.25 3511.92 4041.59 4007.55
6741.24 3569.82 3520.26 3992.94 3993.98
6744.06 3445.71 3487.75 3947.4 3929.47
6746.88 3447.72 3481.43 3848.07 3935.8
6749.7 3550.86 3485.97 4011.93 3920.9
6752.53 3459.34 3462.25 3902.71 3925.95
6755.35 3376.54 3451.38 3863.22 3908.07
6758.17 3518.27 3468.92 3958.29 3899.98
6760.99 3511.95 3463.63 3878.44 3909.05
6763.82 3360.65 3448.48 3890.42 3890.66
6766.64 3472.83 3399.53 3903.12 3833.72
6769.46 3365.1 3467.46 3707.62 3873.98
6772.28 3564.45 3503.32 4011.21 3898.31
6775.1 3580.42 3537.71 3976.09 3992.29
6777.92 3468.27 3522.46 3989.58 3984.99
6780.74 3518.68 3506.68 3989.31 3975.99
6783.56 3533.11 3527.52 3949.08 4000
6786.39 3530.79 3477.67 4061.61 3940.4
6789.21 3369.13 3437.89 3810.52 3867.28
6792.03 3413.74 3373.25 3729.71 3792.04
6794.85 3336.87 3420.29 3835.9 3868.4
6797.67 3510.26 3387.1 4039.59 3893.2
6800.49 3314.18 3403.11 3804.12 3860.69
6803.31 3384.89 3342.19 3738.37 3780.2
6806.13 3327.49 3368.05 3798.1 3744.97
6808.94 3391.78 3451.17 3698.43 3865.67
6811.76 3634.24 3430.07 4100.47 3844.78
6814.58 3264.2 3421.55 3735.45 3878.22
6817.4 3366.22 3347.61 3798.74 3774.87
6820.22 3412.42 3404.37 3790.42 3775.48
6823.04 3434.46 3432.57 3737.29 3792.38
6825.86 3450.84 3436.88 3849.43 3754.86
6828.67 3425.34 3395.01 3677.88 3770.37
6831.49 3308.85 3454.73 3783.8 3825.16
6834.31 3629.99 3535.47 4013.8 3973.03
6837.13 3667.57 3581.9 4121.49 4057.8
6839.95 3448.14 3435.78 4038.11 3952.88
6842.76 3191.64 3333.68 3699.04 3842.93
6845.58 3361.26 3293.46 3791.64 3791.78
6848.4 3327.47 3303.07 3884.66 3768.91
6851.21 3220.47 3325.57 3630.43 3826.53
6854.03 3428.78 3315.46 3964.52 3792.91
6856.85 3297.15 3307.14 3783.79 3805.11
6859.66 3195.48 3119.28 3667.03 3578.74
6862.48 2865.21 2862.6 3285.42 3306.84
6865.3 2527.12 2620.68 2968.07 3052.89
6868.11 2469.7 2523.78 2905.17 2937.09
6870.93 2574.5 2648.01 2938.02 2977.69
6873.74 2899.81 2803.02 3089.87 3079.98
6876.56 2934.75 2944.24 3212.05 3212.52
6879.37 2998.16 2972.75 3335.65 3230.09
6882.19 2985.33 2977.28 3142.58 3216.97
6885 2948.34 2920.82 3172.69 3158.07
6887.82 2828.78 2908.68 3158.94 3211.96
6890.63 2948.91 2905.43 3304.24 3194.08
6893.45 2938.61 2947.07 3119.07 3230.77
6896.26 2953.68 2992.35 3269 3200.13
6899.07 3084.77 3012.92 3212.31 3263.47
6901.89 3000.32 2978.78 3309.1 3246.57
6904.7 2851.26 2957.77 3218.3 3295.37
6907.51 3021.72 2963.15 3358.7 3307.18
6910.33 3016.48 3110.38 3344.54 3381.97
6913.14 3292.96 3132.88 3442.67 3383.89
6915.95 3089.2 3142.12 3364.48 3396.41
6918.77 3044.21 3055.46 3382.08 3378.73
6921.58 3032.96 3063.35 3389.62 3382.12
6924.39 3112.89 3050.14 3374.65 3383.01
6927.2 3004.57 3098.79 3384.77 3376.9
6930.02 3178.91 3098.58 3371.29 3377.52
6932.83 3112.25 3077.85 3376.51 3336.19
6935.64 2942.39 3083.97 3260.76 3364.26
6938.45 3197.28 3030.6 3455.5 3296.52
6941.26 2952.13 3104.86 3173.31 3365.64
6944.07 3165.16 3044.66 3468.1 3342.12
6946.88 3016.68 3075.57 3384.96 3384.35
6949.69 3044.87 2978.83 3300 3314.54
6952.5 2874.94 3003.95 3258.66 3292.27
6955.32 3092.05 2945.94 3318.15 3293.8
6958.13 2870.83 3041.34 3304.6 3318.49
6960.94 3161.13 3010.75 3332.72 3311.26
6963.75 3000.3 3040.65 3296.44 3299.23
6966.56 2960.51 2956.54 3268.53 3279.53
6969.36 2908.82 2973.62 3273.6 3278.64
6972.17 3051.53 2988.97 3293.78 3259.49
6974.98 3006.55 3016.38 3211.08 3282.6
6977.79 2991.05 2956.03 3342.94 3230.38
6980.6 2870.49 2951.52 3137.1 3271.96
6983.41 2993.01 2943.41 3335.84 3229.23
6986.22 2966.72 2981.83 3214.75 3269.69
6989.03 2985.75 3026.73 3258.49 3255.08
6991.83 3127.71 3006.02 3292.01 3199.39
6994.64 2904.6 3024.9 3047.68 3199.09
6997.45 3042.4 3040.69 3257.57 3197.16
7000.26 3175.06 3001.08 3286.24 3183.37
7003.07 2785.78 2969.44 3006.29 3142.9
7005.87 2947.49 2883.22 3136.19 3093.73
7008.68 2916.39 2920.97 3138.7 3169.64
7011.49 2899.04 2915.5 3234.05 3186.91
7014.29 2931.08 2908.49 3187.99 3194.31
7017.1 2895.34 2846.83 3160.9 3079.42
7019.91 2714.08 2814.93 2889.37 3054.94
7022.71 2835.35 2828.65 3114.57 3023.31
7025.52 2936.51 2904.94 3066 3072.45
7028.32 2942.97 2942.77 3036.77 3111.13
7031.13 2948.84 2902.46 3230.6 3113.39
7033.94 2815.56 2881.7 3072.8 3107.37
7036.74 2880.71 2828.88 3018.7 3061.02
7039.55 2790.36 2859.37 3091.55 3115.18
7042.35 2907.05 2890.68 3235.27 3192.84
7045.16 2974.64 2916.89 3251.68 3183.98
7047.96 2868.98 2845.56 3064.99 3096.16
7050.76 2693.05 2818.28 2971.81 3050.77
7053.57 2892.83 2801.63 3115.49 3050.88
7056.37 2819.01 2818.47 3065.32 3033.51
7059.18 2743.56 2804.71 2919.72 3028.94
7061.98 2851.56 2807.51 3101.79 3058.52
7064.78 2827.4 2855.91 3154.07 3085.65
7067.59 2888.77 2784.59 3001.11 3024.15
7070.39 2637.59 2827.5 2917.28 3000.94
7073.19 2956.15 2830.93 3084.44 3029.49
7075.99 2899.06 2879.51 3086.75 3060.98
7078.8 2783.32 2838.24 3011.74 3031.22
7081.6 2832.33 2837.12 2995.17 3006.26
7084.4 2895.72 2859.06 3011.87 2953.86
7087.2 2849.12 2824.36 2854.55 2914.78
7090.01 2728.25 2821.41 2877.92 2898.95
7092.81 2886.85 2787.65 2964.39 2895.02
7095.61 2747.85 2789.45 2842.75 2902.21
7098.41 2733.65 2711.61 2899.47 2858.42
7101.21 2653.33 2806.34 2833.03 2936.5
7104.01 3032.05 2824.97 3076.99 2908.35
7106.81 2789.52 2840.38 2815.04 2941.81
7109.61 2699.58 2756.62 2933.39 2900.19
7112.41 2780.75 2740.07 2952.13 2926.89
7115.21 2739.89 2766.71 2895.16 2898.88
7118.01 2779.49 2785.74 2849.36 2902.82
7120.81 2837.84 2782.26 2963.95 2934.93
7123.61 2729.46 2787.23 2991.47 2976.02
7126.41 2794.39 2718.06 2972.62 2939.63
7129.21 2630.33 2749.75 2854.8 2939.7
7132.01 2824.54 2729.05 2991.68 2928.05
7134.81 2732.28 2743.71 2937.69 2869.57
7137.61 2674.32 2695.93 2679.33 2779.37
7140.41 2681.19 2688.85 2721.07 2744.16
7143.2 2711.04 2666.2 2832.07 2762.02
7146 2606.36 2707.18 2732.92 2836.4
7148.8 2804.13 2709.46 2944.19 2808.7
7151.6 2717.88 2686.19 2748.98 2804.75
7154.39 2536.56 2616.19 2721.07 2748.16
7157.19 2594.14 2551.11 2774.43 2713.79
7159.99 2522.62 2572.2 2645.88 2738.55
7162.79 2599.86 2573.67 2795.34 2712.54
7165.58 2598.53 2588.59 2696.41 2726.44
7168.38 2567.37 2544.89 2687.56 2658.15
7171.18 2468.77 2504.28 2590.49 2607.51
7173.97 2476.69 2480.68 2544.48 2579.2
7176.77 2496.57 2426.41 2602.64 2522.36
7179.56 2305.96 2400.93 2419.97 2509.33
7182.36 2400.26 2316.7 2505.4 2410.13
7185.15 2243.87 2309.98 2305.04 2412.75
7187.95 2285.81 2324.35 2427.81 2408.36
7190.74 2443.38 2366.33 2492.24 2472.77
7193.54 2369.8 2399.22 2498.26 2494.46
7196.33 2384.5 2353.18 2492.88 2481
7199.13 2305.23 2274.98 2451.86 2403.59
7201.92 2135.2 2302.75 2266.04 2421
7204.72 2467.83 2376.12 2545.12 2448.84
7207.51 2525.34 2501.62 2535.35 2535.19
7210.3 2511.7 2490.06 2525.09 2508.27
7213.1 2433.14 2477.7 2464.38 2489.07
7215.89 2488.25 2458.61 2477.75 2486.93
7218.68 2454.45 2421.63 2518.66 2473.2
7221.48 2322.2 2416.66 2423.19 2493.42
7224.27 2473.33 2413.81 2538.42 2496.79
7227.06 2445.91 2417.71 2528.78 2519.15
7229.85 2333.9 2364.6 2490.26 2465.54
7232.65 2313.99 2297.05 2377.57 2400.33
7235.44 2243.27 2280.64 2333.16 2351.95
7238.23 2284.68 2229.99 2345.13 2313.79
7241.02 2162.02 2282.82 2263.1 2357.93
7243.81 2401.77 2318.59 2465.58 2405.84
7246.6 2391.98 2343.69 2488.86 2437.57
7249.39 2237.3 2324.59 2358.28 2396.5
7252.19 2344.49 2296.85 2342.34 2344.52
7254.98 2308.74 2335.79 2332.93 2343.35
7257.77 2354.15 2335.8 2354.79 2341.51
7260.56 2344.52 2392.69 2336.81 2363.04
7263.35 2479.39 2379.58 2397.51 2359.45
7266.14 2314.82 2358.12 2344.04 2319.17
7268.93 2280.16 2286.72 2215.95 2281.34
7271.71 2265.18 2279.14 2284.03 2278.87
7274.5 2292.08 2274.02 2336.63 2305.08
7277.29 2264.8 2245.87 2294.57 2294.67
7280.08 2180.73 2219.68 2252.82 2266.44
7282.87 2213.52 2222.68 2251.94 2295.77
7285.66 2273.8 2243.2 2382.55 2300.98
7288.45 2242.28 2267.92 2268.45 2307.43
7291.23 2287.67 2244.01 2271.28 2242.41
7294.02 2202.07 2228.86 2187.48 2219.31
7296.81 2196.83 2210.47 2199.17 2239.93
7299.6 2232.51 2214.42 2333.15 2242.29
7302.38 2213.91 2222.83 2194.55 2297.68
7305.17 2222.05 2252.08 2365.35 2259.72
7307.96 2320.26 2253.67 2219.27 2253.6
7310.74 2218.7 2234 2176.18 2183.15
7313.53 2163.05 2228.23 2154 2222.33
7316.32 2302.94 2236.89 2336.81 2217.71
7319.1 2244.68 2250.66 2162.32 2233.7
7321.89 2204.37 2251.51 2201.96 2199.52
7324.67 2305.47 2277.02 2234.29 2248.2
7327.46 2321.23 2249.85 2308.34 2215.76
7330.25 2122.85 2273.85 2104.65 2216.95
7333.03 2377.48 2205.19 2237.86 2154.15
7335.81 2115.22 2247.4 2119.94 2225.37
7338.6 2249.49 2205.93 2318.3 2229.82
7341.38 2253.08 2167.07 2251.21 2233.48
7344.17 1998.65 2156.8 2130.93 2237.28
7346.95 2218.67 2105.32 2329.69 2206.03
7349.74 2098.64 2171.59 2157.47 2273.36
7352.52 2197.47 2143.79 2332.91 2242.69
7355.3 2135.25 2147.27 2237.69 2238.84
7358.09 2109.09 2152.15 2145.94 2228.36
7360.87 2212.12 2213.72 2301.44 2253.22
7363.65 2319.94 2223.84 2312.27 2281.84
7366.43 2139.46 2220.98 2231.81 2289.26
7369.22 2203.54 2154.54 2323.7 2230.94
7372 2120.62 2145.71 2137.31 2212.67
7374.78 2112.99 2101.07 2177 2145.12
7377.56 2069.61 2090.2 2121.05 2161.48
7380.34 2088 2089.18 2186.38 2186.54
7383.12 2109.92 2049.74 2252.19 2117.66
7385.91 1951.29 2023.82 1914.4 2064.8
7388.69 2010.25 1985.05 2027.81 1999.41
7391.47 1993.61 2044.06 2056.01 2080.41
7394.25 2128.31 2087.23 2157.4 2120.62
7397.03 2139.77 2117.44 2148.44 2114.11
7399.81 2084.24 2109.12 2036.48 2116.85
7402.59 2103.36 2087.04 2165.64 2117.89
7405.37 2073.54 2099.82 2151.56 2155.47
7408.15 2122.57 2100.62 2149.2 2143.51
7410.93 2105.75 2093.93 2129.78 2102.67
7413.7 2053.48 2088.8 2029.03 2074.73
7416.48 2107.18 2120.61 2065.37 2093.54
7419.26 2201.17 2092.73 2186.23 2091.75
7422.04 1969.84 2067.25 2023.65 2120.29
7424.82 2030.75 1992.96 2150.99 2070.25
7427.6 1978.28 2008.13 2036.12 2074.1
7430.37 2015.35 1975.45 2035.2 1997.66
7433.15 1932.72 1988.78 1921.65 2022.18
7435.93 2018.27 1967.07 2109.68 2007.54
7438.71 1950.23 1990.87 1991.29 2011.1
7441.48 2004.12 1952.78 1932.32 1946.48
7444.26 1903.98 1979.26 1915.84 1990.68
7447.04 2029.68 2003.3 2123.87 1985.52
7449.81 2076.25 2060.95 1916.85 2046.18
7452.59 2076.92 2070.05 2097.82 2001.2
7455.36 2056.98 2070.06 1988.92 2060.21
7458.14 2076.29 2027.1 2093.88 1997.47
7460.92 1948.01 1990.81 1909.61 1989.81
7463.69 1948.13 1970.82 1965.94 1934.33
7466.47 2016.33 2008.68 1927.44 1946.89
7469.24 2061.58 1994.01 1947.3 1937.14
7472.02 1904.12 2035.09 1936.68 1933.03
7474.79 2139.57 1965.35 1915.09 1919.35
7477.56 1852.36 1939.97 1906.29 1905.65
7480.34 1827.97 1872.51 1895.56 1908.59
7483.11 1937.19 1896.54 1923.93 1911.4
7485.89 1924.47 1937.99 1914.69 1902.56
7488.66 1952.32 1952.88 1869.07 1900.5
7491.43 1981.86 1942.91 1917.74 1889.8
7494.2 1894.56 1951.8 1882.6 1861.76
7496.98 1978.98 1968.41 1784.92 1887.36
7499.75 2031.69 1969.93 1994.56 1871.18
7502.52 1899.13 1972.55 1834.05 1907.3
7505.29 1986.82 1935.76 1893.28 1844.42
7508.07 1921.34 1954.74 1805.92 1859.08
7510.84 1956.06 1907.15 1878.04 1823.25
7513.61 1844.06 1868.87 1785.78 1796.48
7516.38 1806.5 1839.94 1725.62 1771.34
7519.15 1869.27 1853.37 1802.61 1735.48
7521.92 1884.35 1943.62 1678.22 1820.71
7524.69 2077.25 1981.3 1981.3 1800.13
7527.46 1982.29 1990.42 1740.85 1857.37
7530.23 1911.72 1884.2 1849.96 1756.78
7533 1758.6 1878.37 1679.52 1802.37
7535.77 1964.8 1912.06 1877.64 1787.91
7538.54 2012.77 1933.18 1806.58 1833.79
7541.31 1821.97 1837.67 1817.15 1754.04
7544.08 1678.27 1790.87 1638.38 1753.08
7546.85 1872.37 1785.97 1803.72 1715.51
7549.62 1807.28 1884.45 1704.43 1749.82
7552.38 1973.71 1842.84 1741.29 1729.69
7555.15 1747.52 1837.22 1743.34 1709.65
7557.92 1790.43 1791.76 1644.32 1742.74
7560.69 1837.34 1815.96 1840.57 1722.51
7563.46 1820.12 1840.88 1682.64 1750.62
7566.22 1865.17 1785.74 1728.65 1697.65
7568.99 1671.92 1817.77 1681.66 1722.63
7571.76 1916.22 1822.36 1757.56 1727.3
7574.52 1878.95 1886.08 1742.69 1754.03
7577.29 1863.06 1833.7 1761.84 1751.98
7580.06 1759.1 1809.39 1751.42 1736.66
7582.82 1806.02 1791.23 1696.71 1716.42
7585.59 1808.57 1702.86 1701.12 1594.44
7588.35 1493.98 1522.34 1385.49 1433.96
7591.12 1264.46 1278.32 1215.29 1260.41
7593.88 1076.52 1036.1 1180.45 1069.33
7596.65 767.309 855.294 812.245 882.112
7599.41 722.059 665.877 653.639 672.088
7602.18 508.264 622.188 550.379 605.462
7604.94 636.24 627.025 612.366 598.773
7607.71 736.571 790.27 633.574 694.91
7610.47 997.999 995.345 838.79 845.649
7613.23 1251.46 1190.18 1064.58 1028.46
7616 1321.07 1236.36 1182 1108.6
7618.76 1136.54 1169.89 1079.22 1083.29
7621.52 1052.07 1046.39 988.648 970.492
7624.28 950.553 974.344 843.613 914.753
7627.05 920.408 952.724 911.998 888.786
7629.81 987.211 947.76 910.748 904.158
7632.57 935.66 1010.53 889.729 943.928
7635.33 1108.73 1067.82 1031.31 992.343
7638.09 1159.07 1165.83 1055.99 1044.4
7640.85 1229.69 1223.61 1045.9 1089.46
7643.62 1282.07 1252.1 1166.49 1130.85
7646.38 1244.55 1241.69 1180.16 1165.32
7649.14 1198.45 1281.35 1149.3 1199.17
7651.9 1401.03 1316.48 1268.04 1204.54
7654.66 1349.96 1373.91 1196.29 1234.13
7657.42 1370.73 1366.72 1238.05 1242.67
7660.18 1379.48 1395.43 1293.67 1273.65
7662.94 1436.09 1411.31 1289.23 1320.1
7665.7 1418.34 1411.57 1377.4 1296.65
7668.45 1380.28 1447.12 1223.31 1312.97
7671.21 1542.75 1464.71 1338.21 1297.87
7673.97 1471.09 1515.1 1332.08 1343.31
7676.73 1531.46 1528.26 1359.64 1320.03
7679.49 1582.22 1555.82 1268.38 1346.48
7682.25 1553.78 1579.86 1411.42 1334.73
7685 1603.57 1580.06 1324.39 1377.67
7687.76 1582.85 1579.55 1397.19 1383.68
7690.52 1552.24 1542.61 1429.46 1388.28
7693.27 1492.75 1529.33 1338.2 1386.76
7696.03 1542.99 1532.19 1392.62 1359.29
7698.79 1560.83 1580.24 1347.06 1396.73
7701.54 1636.91 1637.56 1450.52 1439.61
7704.3 1714.92 1663.81 1521.26 1457.21
7707.06 1639.6 1648.01 1399.85 1452.65
7709.81 1589.5 1542.09 1436.85 1385.74
7712.57 1397.17 1557.22 1320.52 1418.32
7715.32 1685.01 1575.73 1497.59 1432.61
7718.08 1645.01 1688.78 1479.72 1488.77
7720.83 1736.31 1646.67 1489.01 1477.22
7723.58 1558.68 1583.07 1462.93 1443.54
7726.34 1454.21 1501.13 1378.68 1370.32
7729.09 1490.52 1498.68 1269.35 1332.09
7731.85 1551.32 1578.21 1348.25 1354.17
7734.6 1692.8 1596.66 1444.92 1387.4
7737.35 1545.87 1573.02 1369.03 1374.93
7740.11 1480.4 1510.08 1310.84 1326.29
7742.86 1503.96 1485.47 1299.02 1323.24
7745.61 1472.04 1484.6 1359.86 1321.82
7748.36 1477.8 1458.68 1306.58 1305.64
7751.12 1426.19 1494.99 1250.49 1303.04
7753.87 1580.98 1474.2 1352.04 1277.8
7756.62 1415.42 1465.52 1230.87 1281.61
7759.37 1400.18 1447.46 1261.91 1255.91
7762.12 1526.79 1445.25 1274.94 1251.58
7764.87 1408.78 1445.55 1217.9 1254.57
7767.62 1401.1 1399.95 1270.86 1224.81
7770.37 1389.97 1405.78 1185.68 1208.13
7773.12 1426.26 1400.75 1167.84 1179.64
7775.87 1386.01 1426.63 1185.39 1194.73
7778.62 1467.63 1463.13 1230.96 1218.32
7781.37 1535.76 1487.33 1238.6 1245.71
7784.12 1458.6 1470.59 1267.57 1220.13
7786.87 1417.43 1461.71 1154.21 1240.25
7789.62 1509.12 1438.63 1298.96 1206.52
7792.37 1389.36 1478.25 1166.39 1274.13
7795.11 1536.27 1418.24 1357.04 1210.04
7797.86 1329.08 1421.58 1106.69 1249.44
7800.61 1399.38 1426.23 1284.6 1244.43
7803.36 1550.22 1446.56 1341.99 1305.38
7806.11 1390.09 1462.92 1289.54 1294.36
7808.85 1448.44 1427.24 1251.55 1254.34
7811.6 1443.2 1454.98 1221.95 1180.36
7814.35 1473.31 1440.01 1067.59 1167.06
7817.09 1403.51 1489.6 1211.64 1197.33
7819.84 1591.99 1479.39 1312.77 1252.37
7822.58 1442.68 1437.29 1232.69 1209.72
7825.33 1277.2 1383 1083.69 1156.6
7828.07 1429.11 1392.19 1153.43 1153.11
7830.82 1470.25 1438.51 1222.22 1189.88
7833.56 1416.17 1442.19 1194 1200.13
7836.31 1440.15 1399.91 1184.17 1175.01
7839.05 1343.42 1394.01 1146.86 1178.89
7841.8 1398.45 1397.92 1205.62 1181.24
7844.54 1451.89 1407.32 1191.25 1184.46
7847.29 1371.63 1396.12 1156.5 1158.48
7850.03 1364.85 1371.35 1127.69 1130.91
7852.77 1377.56 1371.6 1108.54 1165.49
7855.51 1372.4 1402.03 1260.23 1197.78
7858.26 1456.12 1393.21 1224.57 1189.19
7861 1351.11 1336.01 1082.76 1109.4
7863.74 1200.79 1295.05 1020.86 1053.61
7866.48 1333.25 1291.41 1057.2 1055.73
7869.23 1340.18 1342.38 1089.14 1060.72
7871.97 1353.7 1307.81 1035.82 1068.44
7874.71 1229.55 1313.88 1080.35 1082.42
7877.45 1358.38 1342.7 1131.1 1118.76
7880.19 1440.18 1366.05 1144.83 1140.05
7882.93 1299.6 1319.24 1144.24 1076.53
7885.67 1217.94 1256.72 940.533 1041.28
7888.41 1252.62 1267.47 1039.07 1021.32
7891.15 1331.85 1310.93 1084.37 1081.77
7893.89 1348.34 1323.09 1121.87 1075.11
7896.63 1289.08 1333.87 1019.09 1073.99
7899.37 1364.18 1327.67 1081.02 1036.26
7902.11 1329.74 1357.44 1008.68 1037.45
7904.84 1378.38 1321.02 1022.66 1005.08
7907.58 1254.94 1315.34 983.912 972.644
7910.32 1312.71 1289.05 911.364 970.752
7913.06 1299.51 1327.58 1016.98 995.264
7915.8 1370.51 1304.2 1057.45 1027.09
7918.53 1242.6 1307.05 1006.83 1032.02
7921.27 1308.05 1224.02 1031.77 1015.66
7924.01 1121.4 1194.87 1008.36 999.097
7926.74 1155.14 1192.66 957.156 1005.71
7929.48 1301.44 1192.31 1051.63 977.603
7932.22 1120.36 1245.38 924.027 1017.63
7934.95 1314.34 1238.11 1077.24 991.186
7937.69 1279.62 1260.48 972.296 986.323
7940.42 1187.49 1186.04 909.437 919.554
7943.16 1091.01 1142.78 876.93 890.286
7945.89 1149.85 1099.43 884.49 869.068
7948.63 1057.44 1168.43 845.784 899.788
7951.36 1298.01 1225.62 969.09 949.895
7954.09 1321.42 1236.15 1034.81 945.462
7956.83 1089.01 1235.18 832.485 930.884
7959.56 1295.12 1210.87 925.355 896.057
7962.3 1248.46 1265.17 930.329 944.703
7965.03 1251.91 1237.14 978.425 936.147
7967.76 1211.03 1224 899.688 948.744
7970.49 1209.04 1194.29 968.117 939.396
7973.23 1162.8 1192.27 950.382 948.562
7975.96 1204.98 1199.09 927.188 932.852
7978.69 1229.48 1210.51 920.985 932.469
7981.42 1197.08 1209.66 949.234 937.741
7984.15 1202.41 1166.97 943.005 899.596
7986.88 1101.42 1127.03 806.55 883.715
7989.61 1077.24 1145.31 901.589 882.026
7992.34 1257.25 1202.59 937.937 910.602
7995.07 1273.27 1222.5 892.279 923.854
7997.8 1136.96 1211.46 941.345 935.001
8000.53 1224.14 1168.75 971.378 910.136
8003.26 1145.14 1149.96 817.685 879.94
8005.99 1080.59 1126.08 850.755 838.694
8008.72 1152.51 1156.53 847.64 868.215
8011.45 1236.49 1188.37 906.249 924.075
8014.18 1176.12 1201.1 1018.34 941.46
8016.91 1190.69 1172.52 899.797 920.297
8019.63 1150.76 1170.32 842.76 887.952
8022.36 1169.51 1194.92 921.298 905.64
8025.09 1264.49 1208.15 952.861 907.67
8027.82 1190.45 1187.52 848.85 891.382
8030.54 1107.61 1182.3 872.433 882.231
8033.27 1248.84 1182.62 925.409 915.878
8036 1191.41 1199.4 949.792 913.996
8038.72 1157.95 1145.48 866.788 856.71
8041.45 1087.07 1090.33 753.549 834.558
8044.17 1025.98 1087.89 883.335 834.938
8046.9 1150.63 1105.53 867.931 883.758
8049.62 1139.98 1169.29 900.009 880.246
8052.35 1217.25 1185.76 872.799 881.768
8055.07 1200.05 1186.56 872.496 859.808
8057.8 1142.38 1133.58 834.127 854.666
8060.52 1058.31 1113.34 857.375 834.678
8063.24 1139.33 1086.05 812.531 835.521
8065.97 1060.53 1078.96 836.656 817.55
8068.69 1037.03 1100.91 803.464 849.757
8071.41 1205.18 1111.9 909.15 831.092
8074.14 1093.49 1100.03 780.663 799.627
8076.86 1001.43 1070.72 709.068 771.474
8079.58 1117.23 1073.76 824.689 784.549
8082.3 1102.61 1116.13 819.891 818.692
8085.02 1128.54 1114.76 811.497 823.022
8087.75 1113.13 1130.91 837.677 819.961
8090.47 1151.07 1147.06 810.709 845.2
8093.19 1176.99 1131.76 887.213 837.401
8095.91 1067.23 1132.89 814.282 843.652
8098.63 1154.46 1072.96 829.462 830.027
8101.35 997.194 1070.13 846.339 829.386
8104.07 1058.74 1031.79 812.359 838.57
8106.79 1039.44 1027.25 857.013 818.085
8109.51 983.554 991.795 784.884 799.948
8112.23 952.387 961.103 757.946 765.147
8114.94 947.369 973.697 752.612 756.927
8117.66 1021.33 967.78 760.224 737.659
8120.38 934.638 965.339 700.14 722.271
8123.1 940.044 924.954 706.451 672.985
8125.82 900.181 954.224 612.365 687.101
8128.53 1022.45 992.982 742.486 720.682
8131.25 1056.32 1034.78 807.195 771.206
8133.97 1025.56 1001.61 763.937 757.353
8136.68 922.939 972.581 700.927 728.916
8139.4 969.238 949.897 721.883 719.427
8142.12 957.512 967.307 735.47 726.429
8144.83 975.17 934.486 721.935 696.67
8147.55 870.777 936.763 632.606 670.509
8150.26 964.342 927.898 656.986 645.476
8152.98 948.575 942.895 646.836 656.289
8155.69 915.768 867.327 665.045 637.808
8158.41 737.639 808.81 601.543 619.997
8161.12 773.022 794.156 593.403 603.04
8163.83 871.808 803.181 614.174 587.6
8166.55 764.713 845.128 555.222 597.214
8169.26 898.862 845.428 622.246 620.703
8171.97 872.709 891.969 684.642 659.756
8174.69 904.336 849.33 672.379 644.429
8177.4 770.945 869.793 576.267 634.146
8180.11 934.097 866.125 653.792 647.928
8182.82 893.332 917.802 713.726 682.771
8185.53 925.977 888.68 680.796 663.133
8188.25 846.73 861.638 594.878 618.864
8190.96 812.209 838.09 580.918 602.511
8193.67 855.332 822.7 631.736 589.471
8196.38 800.558 860.328 555.759 594.966
8199.09 925.093 837.943 597.404 607.375
8201.8 788.177 838.691 668.964 613.763
8204.51 802.802 820.823 574.922 654.601
8207.22 871.49 850.308 719.917 641.457
8209.93 876.632 910.173 629.533 685.448
8212.64 982.397 903.281 706.893 650.881
8215.34 850.814 876.264 616.217 637.296
8218.05 795.579 797.843 588.779 597.972
8220.76 747.135 760.61 588.92 562.217
8223.47 739.115 750.552 508.952 553.067
8226.18 765.406 791.349 561.33 538.808
8228.88 869.526 783.365 546.142 582.258
8231.59 715.164 835.957 639.302 606
8234.3 923.18 832.608 632.557 640.396
8237 859.479 880.111 649.33 635.159
8239.71 857.674 868.565 623.589 641.939
8242.42 888.543 847.099 652.899 640.557
8245.12 795.079 853.777 645.184 620.665
8247.83 877.708 876.61 563.911 617.533
8250.53 957.044 881.579 643.505 625.77
8253.24 809.985 895.473 669.894 660.705
8255.94 919.39 898.103 668.716 659.047
8258.64 964.933 922.025 638.532 681.899
8261.35 881.751 911.135 738.45 672.563
8264.05 886.72 885.395 640.708 667.362
8266.76 887.714 895.136 622.929 623.91
8269.46 910.973 903.963 608.093 635.317
8272.16 913.202 899.936 674.929 631.514
8274.86 875.633 874.771 611.52 627.277
8277.57 835.479 865.932 595.381 601.316
8280.27 886.686 847.474 597.046 602.143
8282.97 820.257 858.59 614.003 610.575
8285.67 868.828 860.814 620.677 591.38
8288.37 893.357 901.699 539.459 602.263
8291.07 942.91 909.95 646.652 621.756
8293.77 893.583 914.629 679.157 681.168
8296.47 907.394 884.214 717.694 664.494
8299.17 851.666 874.121 596.632 644.443
8301.87 863.304 857.88 619.004 606.759
8304.57 858.672 828.643 604.641 599.368
8307.27 763.954 833.699 574.46 592.421
8309.97 878.47 826.187 598.163 593.362
8312.67 836.137 843.725 607.462 594.865
8315.37 816.567 861.945 578.971 603.825
8318.06 933.131 833.305 625.042 594.148
8320.76 750.216 869.63 578.431 626.262
8323.46 925.542 825.477 675.314 602.371
8326.16 800.674 858.626 553.367 605.094
8328.85 849.66 819.98 586.602 578.535
8331.55 809.606 831.858 595.635 574.242
8334.25 836.309 839.967 540.49 590.812
8336.94 873.988 873.362 636.312 607.07
8339.64 909.788 888.213 644.408 638.151
8342.33 880.863 883.251 633.734 615.283
8345.03 859.1 844.165 567.709 545.389
8347.72 792.531 824.307 434.726 506.177
8350.42 821.288 847.888 516.098 531.117
8353.11 929.845 852.852 642.528 580.049
8355.81 807.424 881.406 581.522 603.894
8358.5 906.947 869.475 587.633 557.348
8361.19 894.054 885.758 502.889 556.248
8363.89 856.273 879.278 578.222 556.086
8366.58 887.506 838.888 587.148 583.603
8369.27 772.885 809.491 585.44 580.358
8371.96 768.08 839.261 568.485 615.097
8374.65 976.817 849.023 691.367 604.523
8377.35 802.172 861.869 553.716 605.389
8380.04 806.619 813.837 571.085 572.677
8382.73 832.72 851.856 593.23 600.161
8385.42 916.228 858.175 636.166 553.459
8388.11 825.576 880.851 430.979 557.548
8390.8 900.749 849.355 605.5 538.995
8393.49 821.741 849.984 580.506 553.394
8396.18 827.464 846.438 474.176 538.881
8398.87 890.108 852.701 561.96 538.936
8401.56 840.531 852.946 580.673 530.78
8404.25 828.199 831.549 449.707 552.414
8406.93 825.917 810.127 626.862 522.273
8409.62 776.264 807.703 490.249 546.042
8412.31 820.928 830.527 521.015 549.144
8415 894.39 851.269 636.167 563.432
8417.69 838.488 894.597 533.114 586.055
8420.37 950.913 903.083 588.884 573.138
8423.06 919.849 916.202 597.416 552.771
8425.74 877.843 910.199 472.012 589.583
8428.43 932.906 886.562 699.321 558.898
8431.12 848.936 862.678 505.361 529.584
8433.8 806.192 824.553 384.069 471.2
8436.49 818.53 790.368 524.171 460.875
8439.17 746.383 782.612 474.386 516.341
8441.86 782.924 802.252 550.465 522.826
8444.54 877.45 829.106 543.626 558.578
8447.22 826.944 853.792 581.641 543.907
8449.91 856.983 834.562 506.455 538.07
8452.59 819.759 830.827 526.114 489.359
8455.27 815.738 801.155 435.508 487.452
8457.96 767.969 788.109 500.734 496.04
8460.64 780.618 774.001 551.878 520.161
8463.32 773.417 791.457 507.87 545.062
8466 820.336 815.457 575.437 516.614
8468.68 852.618 851.496 466.534 530.2
8471.37 881.533 840.029 548.63 495.076
8474.05 785.937 829.709 470.065 499.547
8476.73 821.656 845.085 479.947 486.645
8479.41 927.663 838.282 509.924 489.504
8482.09 765.527 840.342 478.641 470.603
8484.77 827.837 796.367 423.243 465.653
8487.45 795.738 826.682 495.075 466.169
8490.13 856.472 811.231 480.189 480.433
8492.8 781.484 812.87 466.035 469.439
8495.48 800.655 798.178 462.092 460.501
8498.16 812.396 811.631 453.375 477.18
8500.84 821.843 841.495 516.073 494.625
8503.52 890.246 820.751 514.426 463.219
8506.19 750.164 837.488 359.158 437.52
8508.87 872.054 821.056 438.976 401.457
8511.55 840.952 835.172 406.236 431.973
8514.22 792.511 791.351 450.708 425.581
8516.9 740.589 796.352 419.8 440.145
8519.58 855.955 825.738 449.928 454.896
8522.25 880.67 858.537 494.961 451.119
8524.93 838.985 869.101 408.469 446.831
8527.6 887.649 832.096 437.064 397.242
8530.28 769.656 792.02 346.194 387.731
8532.95 718.755 729.151 379.934 371.597
8535.62 699.041 750.035 388.662 372.852
8538.3 832.309 759.272 349.96 359.357
8540.97 746.466 756.502 339.448 358.164
8543.64 690.732 692.977 385.083 365.39
8546.32 641.733 696.046 371.638 399.965
8548.99 755.672 767.489 443.174 402.368
8551.66 905.062 818.992 392.294 389.392
8554.33 796.242 834.205 332.71 353.917
8557 801.312 765.056 336.749 332.172
8559.67 697.615 757.178 327.058 352.395
8562.35 772.608 770.744 393.378 390.866
8565.02 842.008 787.342 452.163 412.217
8567.69 747.409 775.551 391.11 399.744
8570.36 737.236 782.738 355.96 390.368
8573.03 863.568 819.403 424.033 379.417
8575.7 857.404 865.777 358.257 407.553
8578.36 876.359 847.464 440.369 389.916
8581.03 808.628 846.181 371.121 383.33
8583.7 853.557 841.871 338.502 347.887
8586.37 863.427 830.804 334.04 363.658
8589.04 775.427 795.036 418.434 376.967
8591.7 746.253 795.968 378.428 423.273
8594.37 866.224 770.596 472.956 411.961
8597.04 699.311 759.318 384.501 422.04
8599.7 712.419 759.655 408.665 402.801
8602.37 867.235 756.744 415.239 415.204
8605.04 690.579 759.469 421.708 393.184
8607.7 720.594 754.136 342.605 406.899
8610.37 851.234 786.931 456.385 379.894
8613.03 788.965 786.488 340.693 381.409
8615.7 719.264 753.52 347.15 351.788
8618.36 752.329 763.643 367.521 398.39
8621.02 819.335 753.921 480.5 411.145
8623.69 690.099 754.475 385.413 417.276
8626.35 753.993 735.133 385.915 390.233
8629.01 761.308 774.492 399.372 415.707
8631.68 808.176 745.929 461.835 415.189
8634.34 668.304 766.804 384.359 456.433
8637 823.933 770.406 523.105 432.661
8639.66 818.982 774.071 390.52 437.411
8642.32 679.299 742.002 398.607 380.054
8644.99 727.725 696.155 351.035 412.035
8647.65 681.44 710.232 486.462 421.736
8650.31 721.533 696.78 427.709 449.042
8652.97 687.366 712.529 432.954 436.874
8655.63 728.686 704.269 449.96 422.157
8658.29 696.755 715.921 383.557 403.123
8660.94 722.323 740.874 375.851 386.748
8663.6 803.546 727.306 400.835 413.249
8666.26 656.049 715.894 463.062 396.017
8668.92 688.088 679.118 324.152 399.137
8671.58 693.219 703.448 410.197 346.008
8674.24 729.037 693.681 303.674 338.33
8676.89 658.786 669.006 301.118 302.927
8679.55 619.195 688.762 303.99 345.467
8682.21 788.304 728.666 431.293 362.697
8684.86 778.498 754.744 352.809 387.188
8687.52 697.431 710.669 377.462 399.318
8690.17 656.078 712.113 467.683 391.012
8692.83 782.83 715.804 327.891 349.726
8695.48 708.506 737.648 253.604 320.647
8698.14 721.609 730.02 380.446 324.773
8700.79 759.945 721.457 340.267 342.714
8703.45 682.819 745.29 307.427 357.763
8706.1 793.108 748.793 425.595 364.801
8708.75 770.451 758.508 361.382 384.756
8711.41 711.965 720.216 367.291 351.42
8714.06 678.232 693.936 325.587 309.858
8716.71 691.612 689.778 236.696 269.89
8719.36 699.49 727.922 247.388 261.924
8722.02 792.664 769.514 301.689 297.093
8724.67 816.389 815.624 342.201 334.449
8727.32 837.82 802.005 359.456 338.042
8729.97 751.807 788.865 312.468 332.951
8732.62 776.968 780.593 326.929 305.886
8735.27 813.004 792.043 278.261 313.842
8737.92 786.156 788.248 336.336 299.43
8740.57 765.583 750.801 283.693 280.023
8743.22 700.665 725.145 220.039 248.096
8745.87 709.187 698.725 240.557 228.261
8748.51 686.322 682.665 224.188 256.493
8751.16 652.487 664.69 304.734 256.829
8753.81 655.262 665.307 241.565 274.186
8756.46 688.172 687.447 276.261 273.735
8759.1 718.907 694.327 303.379 284.06
8761.75 675.9 699.979 272.542 267.976
8764.4 705.13 687.676 228.007 271.129
8767.04 681.997 705.074 312.839 288.81
8769.69 728.096 709.884 325.585 318.483
8772.33 719.559 705.544 317.025 295.392
8774.98 668.977 678.115 243.567 266.291
8777.62 645.81 679.329 238.283 269.282
8780.27 723.2 679.752 325.998 273.103
8782.91 670.247 705.456 255.03 287.203
8785.56 722.921 677.053 280.581 253.894
8788.2 637.99 658.189 226.07 252.907
8790.84 613.656 636.717 252.069 275.179
8793.49 658.506 641.055 347.4 306.796
8796.13 651.003 684.281 320.918 350.285
8798.77 743.334 700.278 382.536 334.412
8801.41 706.496 709.433 299.783 326.721
8804.05 678.47 681.805 297.843 292.818
8806.69 660.448 680.234 280.829 307.928
8809.34 701.785 653.145 345.112 309.087
8811.98 597.203 625.704 301.319 321.97
8814.62 578.125 621.856 319.478 318.929
8817.26 690.24 639.267 335.989 331.865
8819.89 649.436 657.018 340.128 331.091
8822.53 631.379 664.295 317.154 346.018
8825.17 712.072 696.388 380.772 346.246
8827.81 745.713 714.291 340.812 361.938
8830.45 685.089 703.671 364.23 341.823
8833.09 680.213 680.321 320.427 351.72
8835.72 675.662 664.499 370.503 348.695
8838.36 637.621 666.142 355.155 351.849
8841 685.142 649.055 329.889 337.587
8843.63 624.402 663.1 327.717 335.9
8846.27 679.755 691.033 350.094 330.93
8848.91 768.942 689.245 314.978 351.606
8851.54 619.037 674.128 389.745 307.316
8854.18 634.405 633.929 217.224 279.668
8856.81 648.345 672.519 232.034 271.091
8859.44 734.808 655.287 364.014 322.403
8862.08 582.708 657.485 371.161 348.392
8864.71 654.94 644.445 310.001 308.111
8867.34 695.686 632.019 243.171 289.97
8869.98 545.432 594.263 316.737 291.101
8872.61 541.67 568.187 313.394 315.523
8875.24 617.459 584.726 316.436 305.497
8877.87 595.05 599.181 286.66 325.669
8880.51 585.033 620.199 373.912 323.079
8883.14 680.515 615.416 308.665 339.689
8885.77 580.7 637.336 336.49 338.426
8888.4 650.794 600.656 370.122 334.307
8891.03 570.475 617.217 296.309 299.3
8893.66 630.381 599.71 231.47 243.996
8896.29 598.272 614.068 204.209 247.318
8898.92 613.55 579.615 306.275 247.761
8901.55 527.023 569.212 232.798 249.478
8904.17 567.064 568.052 209.36 238.549
8906.8 610.071 585.349 273.489 222.115
8909.43 578.914 601.012 183.494 246.197
8912.06 614.051 573.072 281.607 234.14
8914.68 526.252 571.396 237.318 269.707
8917.31 573.885 607.524 290.197 272.965
8919.94 722.435 617.845 291.38 250.895
8922.56 557.214 626.851 171.107 186.599
8925.19 600.903 565.17 97.3113 114.364
8927.81 537.393 566.855 74.6747 129.946
8930.44 562.269 586.126 217.852 131.287
8933.06 658.716 613.903 101.335 137.627
8935.69 620.723 655.485 93.6937 120.588
8938.31 687.015 619.199 166.736 130.288
8940.93 549.86 628.841 130.433 168.035
8943.56 649.649 561.469 206.935 167.158
8946.18 484.897 566.945 164.106 163.912
8948.8 566.287 517.711 120.696 145.881
8951.43 501.947 567.691 152.84 119.14
8954.05 634.838 578.14 83.8843 144.459
8956.67 597.637 577.721 196.653 162.843
8959.29 500.69 561.894 207.992 177.475
8961.91 587.355 513.417 127.781 101.538
8964.53 452.207 456.858 -31.1574 70.2348
8967.15 331.012 261.073 114.081 27.6413
